TITLE	N2200
DATA TYPE	ULTRAVIOLET SPECTRUM
ORIGIN	JASCO
OWNER	
DATE	21/10/25
TIME	14:45:38
SPECTROMETER/DATA SYSTEM	
LOCALE	1033
RESOLUTION	
DELTAX	-0.5
XUNITS	NANOMETERS
YUNITS	ABSORBANCE
FIRSTX	 1600.0000
LASTX	  200.0000
NPOINTS	    2801
FIRSTY	     0.00131
MAXY	     0.15696
MINY	     0.00131
XYDATA
1600.0000	0.00131171
1599.5000	0.00131459
1599.0000	0.00131417
1598.5000	0.00131659
1598.0000	0.0013197
1597.5000	0.00132359
1597.0000	0.00132933
1596.5000	0.00132883
1596.0000	0.00132918
1595.5000	0.0013281
1595.0000	0.00132947
1594.5000	0.00132998
1594.0000	0.00133476
1593.5000	0.00133757
1593.0000	0.00133948
1592.5000	0.0013419
1592.0000	0.00134476
1591.5000	0.00134393
1591.0000	0.00134377
1590.5000	0.00134258
1590.0000	0.0013451
1589.5000	0.00134673
1589.0000	0.00135173
1588.5000	0.0013537
1588.0000	0.00135761
1587.5000	0.00135828
1587.0000	0.00136106
1586.5000	0.00136245
1586.0000	0.00136326
1585.5000	0.00136383
1585.0000	0.00136961
1584.5000	0.00137352
1584.0000	0.00137939
1583.5000	0.00138126
1583.0000	0.0013876
1582.5000	0.00139236
1582.0000	0.00139738
1581.5000	0.00140003
1581.0000	0.00139886
1580.5000	0.0013999
1580.0000	0.00140005
1579.5000	0.00140047
1579.0000	0.00140133
1578.5000	0.00140002
1578.0000	0.0013985
1577.5000	0.00139974
1577.0000	0.00140259
1576.5000	0.00140226
1576.0000	0.00140162
1575.5000	0.00140175
1575.0000	0.00140415
1574.5000	0.00140683
1574.0000	0.00141081
1573.5000	0.00141281
1573.0000	0.00141645
1572.5000	0.00141846
1572.0000	0.00142371
1571.5000	0.00142585
1571.0000	0.00142777
1570.5000	0.0014293
1570.0000	0.00143022
1569.5000	0.0014271
1569.0000	0.00143093
1568.5000	0.00143109
1568.0000	0.00143277
1567.5000	0.00143597
1567.0000	0.00144132
1566.5000	0.00144186
1566.0000	0.00144369
1565.5000	0.00144427
1565.0000	0.00144398
1564.5000	0.00144515
1564.0000	0.00144822
1563.5000	0.00145218
1563.0000	0.00145567
1562.5000	0.00145287
1562.0000	0.00145497
1561.5000	0.00145377
1561.0000	0.00145037
1560.5000	0.00144993
1560.0000	0.00145121
1559.5000	0.00145424
1559.0000	0.00145417
1558.5000	0.00145485
1558.0000	0.00145848
1557.5000	0.00145809
1557.0000	0.00145755
1556.5000	0.00145888
1556.0000	0.00146573
1555.5000	0.00146832
1555.0000	0.00147274
1554.5000	0.00147422
1554.0000	0.00147909
1553.5000	0.00148283
1553.0000	0.00148732
1552.5000	0.00148983
1552.0000	0.0014953
1551.5000	0.00149795
1551.0000	0.00149941
1550.5000	0.00150013
1550.0000	0.00150273
1549.5000	0.00150382
1549.0000	0.00150568
1548.5000	0.00150892
1548.0000	0.00151096
1547.5000	0.0015106
1547.0000	0.00150982
1546.5000	0.00151049
1546.0000	0.00151338
1545.5000	0.00151383
1545.0000	0.0015151
1544.5000	0.00151745
1544.0000	0.00151781
1543.5000	0.00151952
1543.0000	0.00152096
1542.5000	0.00152211
1542.0000	0.00152122
1541.5000	0.00152319
1541.0000	0.00152629
1540.5000	0.00152797
1540.0000	0.00153046
1539.5000	0.00153183
1539.0000	0.00153453
1538.5000	0.00153774
1538.0000	0.00154168
1537.5000	0.0015444
1537.0000	0.0015514
1536.5000	0.00155364
1536.0000	0.00155797
1535.5000	0.00156174
1535.0000	0.00156724
1534.5000	0.00156952
1534.0000	0.0015705
1533.5000	0.00157045
1533.0000	0.00157085
1532.5000	0.00156768
1532.0000	0.00156983
1531.5000	0.00157241
1531.0000	0.00157446
1530.5000	0.00157322
1530.0000	0.00157695
1529.5000	0.00157653
1529.0000	0.00157664
1528.5000	0.00157755
1528.0000	0.00157946
1527.5000	0.00158249
1527.0000	0.00158758
1526.5000	0.00158969
1526.0000	0.00159422
1525.5000	0.00159102
1525.0000	0.00159187
1524.5000	0.00159302
1524.0000	0.00159728
1523.5000	0.0015989
1523.0000	0.00160269
1522.5000	0.00160226
1522.0000	0.00160017
1521.5000	0.00160132
1521.0000	0.00160397
1520.5000	0.00160634
1520.0000	0.00160554
1519.5000	0.00160781
1519.0000	0.00161463
1518.5000	0.0016195
1518.0000	0.00161959
1517.5000	0.00162154
1517.0000	0.00162249
1516.5000	0.00162421
1516.0000	0.00162812
1515.5000	0.00163103
1515.0000	0.00163516
1514.5000	0.00163842
1514.0000	0.00164291
1513.5000	0.00164712
1513.0000	0.0016486
1512.5000	0.00165126
1512.0000	0.00165267
1511.5000	0.001657
1511.0000	0.00165694
1510.5000	0.00166102
1510.0000	0.00166458
1509.5000	0.00166548
1509.0000	0.00166758
1508.5000	0.00166764
1508.0000	0.00166764
1507.5000	0.00166819
1507.0000	0.00166843
1506.5000	0.00166969
1506.0000	0.00167335
1505.5000	0.00167548
1505.0000	0.00167552
1504.5000	0.00167949
1504.0000	0.00168032
1503.5000	0.00167942
1503.0000	0.00168206
1502.5000	0.00168602
1502.0000	0.00168978
1501.5000	0.00169098
1501.0000	0.00169505
1500.5000	0.00169862
1500.0000	0.0016996
1499.5000	0.00169876
1499.0000	0.00170107
1498.5000	0.00170306
1498.0000	0.00170313
1497.5000	0.00170466
1497.0000	0.00170472
1496.5000	0.00170859
1496.0000	0.00170696
1495.5000	0.00170619
1495.0000	0.0017081
1494.5000	0.00170941
1494.0000	0.00170981
1493.5000	0.00171163
1493.0000	0.00171075
1492.5000	0.00171172
1492.0000	0.00171235
1491.5000	0.00171458
1491.0000	0.00171781
1490.5000	0.00172143
1490.0000	0.00172115
1489.5000	0.00172274
1489.0000	0.00172641
1488.5000	0.00172887
1488.0000	0.0017318
1487.5000	0.00173474
1487.0000	0.00173767
1486.5000	0.0017397
1486.0000	0.00173863
1485.5000	0.00174009
1485.0000	0.00174017
1484.5000	0.00174061
1484.0000	0.00174143
1483.5000	0.00174687
1483.0000	0.00174885
1482.5000	0.00175059
1482.0000	0.00175266
1481.5000	0.00175397
1481.0000	0.00175448
1480.5000	0.00175675
1480.0000	0.00176045
1479.5000	0.00176569
1479.0000	0.00176648
1478.5000	0.00177159
1478.0000	0.00178082
1477.5000	0.00178217
1477.0000	0.00177883
1476.5000	0.00177912
1476.0000	0.00177903
1475.5000	0.00178037
1475.0000	0.00177889
1474.5000	0.00178078
1474.0000	0.00178072
1473.5000	0.00178263
1473.0000	0.0017874
1472.5000	0.00179238
1472.0000	0.00179798
1471.5000	0.00179815
1471.0000	0.00180168
1470.5000	0.0018099
1470.0000	0.00181368
1469.5000	0.00181635
1469.0000	0.00182037
1468.5000	0.00182796
1468.0000	0.00183337
1467.5000	0.00183712
1467.0000	0.00183978
1466.5000	0.00184227
1466.0000	0.0018435
1465.5000	0.00184237
1465.0000	0.00184254
1464.5000	0.00184627
1464.0000	0.00184402
1463.5000	0.00184727
1463.0000	0.00185074
1462.5000	0.00185395
1462.0000	0.00184997
1461.5000	0.00185264
1461.0000	0.00185319
1460.5000	0.00185319
1460.0000	0.00185311
1459.5000	0.00185653
1459.0000	0.00185675
1458.5000	0.00185934
1458.0000	0.00185905
1457.5000	0.00186314
1457.0000	0.00186655
1456.5000	0.00186673
1456.0000	0.00186518
1455.5000	0.00186625
1455.0000	0.00186331
1454.5000	0.00186345
1454.0000	0.00186638
1453.5000	0.00186806
1453.0000	0.00187138
1452.5000	0.00187609
1452.0000	0.00188294
1451.5000	0.00188688
1451.0000	0.00188644
1450.5000	0.00188519
1450.0000	0.00188285
1449.5000	0.00188761
1449.0000	0.00189011
1448.5000	0.00189871
1448.0000	0.0019112
1447.5000	0.00191414
1447.0000	0.001918
1446.5000	0.00191719
1446.0000	0.00191653
1445.5000	0.00191696
1445.0000	0.00192079
1444.5000	0.00192801
1444.0000	0.00193331
1443.5000	0.00193685
1443.0000	0.00193805
1442.5000	0.00194397
1442.0000	0.00194173
1441.5000	0.00194007
1441.0000	0.0019412
1440.5000	0.00194215
1440.0000	0.00194574
1439.5000	0.00194936
1439.0000	0.00194725
1438.5000	0.00194786
1438.0000	0.00194225
1437.5000	0.0019465
1437.0000	0.00195299
1436.5000	0.00195957
1436.0000	0.00196262
1435.5000	0.00196073
1435.0000	0.00196405
1434.5000	0.00196625
1434.0000	0.00197021
1433.5000	0.00197168
1433.0000	0.00197623
1432.5000	0.00197959
1432.0000	0.00198086
1431.5000	0.00198691
1431.0000	0.00199189
1430.5000	0.0019932
1430.0000	0.0019909
1429.5000	0.00199445
1429.0000	0.00199978
1428.5000	0.00199782
1428.0000	0.00199278
1427.5000	0.00199268
1427.0000	0.00199414
1426.5000	0.00199511
1426.0000	0.00200589
1425.5000	0.00201272
1425.0000	0.00201156
1424.5000	0.00201167
1424.0000	0.0020134
1423.5000	0.00201331
1423.0000	0.00201292
1422.5000	0.00201389
1422.0000	0.00202134
1421.5000	0.00203022
1421.0000	0.00203664
1420.5000	0.00204272
1420.0000	0.00204845
1419.5000	0.00204712
1419.0000	0.00204171
1418.5000	0.00203806
1418.0000	0.00203564
1417.5000	0.00203554
1417.0000	0.0020435
1416.5000	0.00205198
1416.0000	0.00206114
1415.5000	0.00206125
1415.0000	0.00205708
1414.5000	0.00205778
1414.0000	0.00205027
1413.5000	0.0020464
1413.0000	0.00204239
1412.5000	0.00204751
1412.0000	0.00206314
1411.5000	0.00206966
1411.0000	0.00207523
1410.5000	0.00207534
1410.0000	0.00207525
1409.5000	0.00207465
1409.0000	0.00207862
1408.5000	0.00208237
1408.0000	0.00208512
1407.5000	0.00209393
1407.0000	0.00211209
1406.5000	0.00212379
1406.0000	0.00213367
1405.5000	0.00213411
1405.0000	0.00213168
1404.5000	0.00212954
1404.0000	0.00212552
1403.5000	0.00212034
1403.0000	0.00212789
1402.5000	0.00213674
1402.0000	0.00215248
1401.5000	0.00216173
1401.0000	0.0021628
1400.5000	0.00215779
1400.0000	0.0021385
1399.5000	0.00213016
1399.0000	0.0021265
1398.5000	0.00213294
1398.0000	0.00214596
1397.5000	0.002162
1397.0000	0.00218086
1396.5000	0.00218001
1396.0000	0.00217001
1395.5000	0.00216044
1395.0000	0.00216157
1394.5000	0.00216845
1394.0000	0.00218945
1393.5000	0.00220576
1393.0000	0.00221761
1392.5000	0.00221777
1392.0000	0.00220901
1391.5000	0.00220126
1391.0000	0.00218573
1390.5000	0.00218328
1390.0000	0.00219387
1389.5000	0.00220455
1389.0000	0.00220531
1388.5000	0.00219819
1388.0000	0.0021889
1387.5000	0.00218533
1387.0000	0.00217785
1386.5000	0.0021749
1386.0000	0.00217867
1385.5000	0.0021867
1385.0000	0.00220266
1384.5000	0.00221142
1384.0000	0.00221625
1383.5000	0.00221455
1383.0000	0.00221924
1382.5000	0.00223256
1382.0000	0.00225226
1381.5000	0.00225659
1381.0000	0.00225452
1380.5000	0.00226252
1380.0000	0.00227122
1379.5000	0.00227511
1379.0000	0.00227579
1378.5000	0.00227447
1378.0000	0.00226985
1377.5000	0.00226769
1377.0000	0.00226577
1376.5000	0.00225971
1376.0000	0.0022477
1375.5000	0.00224031
1375.0000	0.00223179
1374.5000	0.00222775
1374.0000	0.0022204
1373.5000	0.00222128
1373.0000	0.00222452
1372.5000	0.00222366
1372.0000	0.00221802
1371.5000	0.00221334
1371.0000	0.00221171
1370.5000	0.00221054
1370.0000	0.0022215
1369.5000	0.0022272
1369.0000	0.00223076
1368.5000	0.00223105
1368.0000	0.00223267
1367.5000	0.0022386
1367.0000	0.00224409
1366.5000	0.00224897
1366.0000	0.00225273
1365.5000	0.00225128
1365.0000	0.00224785
1364.5000	0.00224967
1364.0000	0.00225733
1363.5000	0.00226007
1363.0000	0.00226705
1362.5000	0.00227742
1362.0000	0.00230354
1361.5000	0.00231703
1361.0000	0.0023334
1360.5000	0.00233738
1360.0000	0.00234436
1359.5000	0.00235322
1359.0000	0.00237158
1358.5000	0.00238489
1358.0000	0.00239443
1357.5000	0.00239799
1357.0000	0.00240578
1356.5000	0.00240784
1356.0000	0.00241277
1355.5000	0.002413
1355.0000	0.00241683
1354.5000	0.00241449
1354.0000	0.00242044
1353.5000	0.00242392
1353.0000	0.00243067
1352.5000	0.00243497
1352.0000	0.0024352
1351.5000	0.00243505
1351.0000	0.00242979
1350.5000	0.00242668
1350.0000	0.0024262
1349.5000	0.00242448
1349.0000	0.00242331
1348.5000	0.00242171
1348.0000	0.00242635
1347.5000	0.00242789
1347.0000	0.0024252
1346.5000	0.00242832
1346.0000	0.00243292
1345.5000	0.00243381
1345.0000	0.00243529
1344.5000	0.00243357
1344.0000	0.00243629
1343.5000	0.00243607
1343.0000	0.00244317
1342.5000	0.00244513
1342.0000	0.00245075
1341.5000	0.00245202
1341.0000	0.00245508
1340.5000	0.00245759
1340.0000	0.00245868
1339.5000	0.00246264
1339.0000	0.00246992
1338.5000	0.00247298
1338.0000	0.00247811
1337.5000	0.00247996
1337.0000	0.00248276
1336.5000	0.00248155
1336.0000	0.0024826
1335.5000	0.002484
1335.0000	0.00248293
1334.5000	0.00248355
1334.0000	0.0024871
1333.5000	0.0024899
1333.0000	0.0024912
1332.5000	0.00249072
1332.0000	0.00249591
1331.5000	0.00249847
1331.0000	0.00250022
1330.5000	0.00250461
1330.0000	0.00250857
1329.5000	0.00251326
1329.0000	0.0025184
1328.5000	0.00252299
1328.0000	0.00252943
1327.5000	0.0025323
1327.0000	0.00253692
1326.5000	0.0025396
1326.0000	0.00254637
1325.5000	0.00255044
1325.0000	0.0025563
1324.5000	0.00256014
1324.0000	0.0025614
1323.5000	0.00256507
1323.0000	0.00256877
1322.5000	0.00257116
1322.0000	0.00257436
1321.5000	0.00257767
1321.0000	0.00258236
1320.5000	0.00258639
1320.0000	0.00259262
1319.5000	0.00259554
1319.0000	0.00259639
1318.5000	0.00259809
1318.0000	0.00260449
1317.5000	0.00260732
1317.0000	0.00261007
1316.5000	0.00261152
1316.0000	0.00261401
1315.5000	0.0026162
1315.0000	0.0026193
1314.5000	0.00262321
1314.0000	0.00262615
1313.5000	0.00262896
1313.0000	0.0026323
1312.5000	0.00263462
1312.0000	0.00263817
1311.5000	0.0026382
1311.0000	0.00264192
1310.5000	0.00264655
1310.0000	0.00265367
1309.5000	0.00265619
1309.0000	0.00265923
1308.5000	0.00266056
1308.0000	0.00266283
1307.5000	0.00266368
1307.0000	0.00266509
1306.5000	0.00266868
1306.0000	0.00267282
1305.5000	0.00267534
1305.0000	0.00268186
1304.5000	0.0026848
1304.0000	0.00268511
1303.5000	0.0026867
1303.0000	0.00268889
1302.5000	0.00269166
1302.0000	0.00269506
1301.5000	0.00269675
1301.0000	0.00270182
1300.5000	0.00270307
1300.0000	0.00270299
1299.5000	0.00270574
1299.0000	0.00270814
1298.5000	0.00270909
1298.0000	0.00271289
1297.5000	0.00271482
1297.0000	0.0027195
1296.5000	0.00272242
1296.0000	0.00272264
1295.5000	0.00272743
1295.0000	0.00273147
1294.5000	0.00273408
1294.0000	0.00273757
1293.5000	0.00274115
1293.0000	0.00274475
1292.5000	0.00274981
1292.0000	0.00275341
1291.5000	0.00275862
1291.0000	0.00276373
1290.5000	0.00276749
1290.0000	0.00277124
1289.5000	0.00277842
1289.0000	0.00278069
1288.5000	0.00278453
1288.0000	0.00278898
1287.5000	0.0027939
1287.0000	0.00279572
1286.5000	0.00279748
1286.0000	0.0027999
1285.5000	0.00280018
1285.0000	0.0028005
1284.5000	0.00280502
1284.0000	0.00280915
1283.5000	0.00281406
1283.0000	0.00281691
1282.5000	0.00281928
1282.0000	0.00282464
1281.5000	0.0028269
1281.0000	0.00283127
1280.5000	0.00283865
1280.0000	0.00284532
1279.5000	0.00284946
1279.0000	0.0028542
1278.5000	0.00285756
1278.0000	0.00285916
1277.5000	0.00286225
1277.0000	0.00286573
1276.5000	0.00287021
1276.0000	0.00287734
1275.5000	0.00288059
1275.0000	0.00288554
1274.5000	0.00288828
1274.0000	0.00288927
1273.5000	0.0028933
1273.0000	0.00289775
1272.5000	0.00290559
1272.0000	0.00290972
1271.5000	0.00291475
1271.0000	0.00291976
1270.5000	0.00292573
1270.0000	0.0029278
1269.5000	0.00293223
1269.0000	0.00293812
1268.5000	0.00294357
1268.0000	0.00295097
1267.5000	0.00295655
1267.0000	0.00295949
1266.5000	0.00296307
1266.0000	0.00296229
1265.5000	0.00296952
1265.0000	0.0029754
1264.5000	0.00297657
1264.0000	0.00297924
1263.5000	0.00298353
1263.0000	0.00298398
1262.5000	0.00298752
1262.0000	0.00298587
1261.5000	0.00298981
1261.0000	0.00299207
1260.5000	0.00299622
1260.0000	0.00300388
1259.5000	0.00300869
1259.0000	0.00301059
1258.5000	0.00301494
1258.0000	0.00302112
1257.5000	0.0030262
1257.0000	0.00302827
1256.5000	0.0030331
1256.0000	0.00303716
1255.5000	0.00304079
1255.0000	0.00304057
1254.5000	0.00304532
1254.0000	0.0030482
1253.5000	0.003052
1253.0000	0.00305236
1252.5000	0.00305774
1252.0000	0.00305947
1251.5000	0.00306243
1251.0000	0.00306508
1250.5000	0.00306846
1250.0000	0.00307188
1249.5000	0.00307774
1249.0000	0.0030827
1248.5000	0.00308901
1248.0000	0.00309313
1247.5000	0.00309629
1247.0000	0.00310085
1246.5000	0.0031089
1246.0000	0.00311223
1245.5000	0.00311632
1245.0000	0.00311932
1244.5000	0.00312502
1244.0000	0.00312838
1243.5000	0.00313034
1243.0000	0.00313274
1242.5000	0.00313741
1242.0000	0.00314305
1241.5000	0.00314592
1241.0000	0.00315242
1240.5000	0.00315546
1240.0000	0.00315585
1239.5000	0.00315877
1239.0000	0.00316515
1238.5000	0.00316988
1238.0000	0.00317088
1237.5000	0.00317737
1237.0000	0.00318286
1236.5000	0.00318511
1236.0000	0.00318958
1235.5000	0.00319581
1235.0000	0.00319987
1234.5000	0.00320503
1234.0000	0.00321192
1233.5000	0.00321884
1233.0000	0.00322095
1232.5000	0.00322432
1232.0000	0.00322699
1231.5000	0.00323217
1231.0000	0.00323661
1230.5000	0.0032425
1230.0000	0.00324893
1229.5000	0.00325322
1229.0000	0.0032574
1228.5000	0.0032619
1228.0000	0.00326586
1227.5000	0.00326747
1227.0000	0.0032697
1226.5000	0.00327634
1226.0000	0.0032834
1225.5000	0.00328973
1225.0000	0.00329456
1224.5000	0.00329619
1224.0000	0.0033007
1223.5000	0.00330465
1223.0000	0.00330907
1222.5000	0.00331364
1222.0000	0.00331882
1221.5000	0.0033222
1221.0000	0.00332747
1220.5000	0.00333272
1220.0000	0.00334051
1219.5000	0.00334312
1219.0000	0.00334649
1218.5000	0.00335378
1218.0000	0.00336185
1217.5000	0.00336621
1217.0000	0.00337332
1216.5000	0.00337873
1216.0000	0.00337979
1215.5000	0.00338321
1215.0000	0.0033879
1214.5000	0.0033923
1214.0000	0.00339397
1213.5000	0.00339679
1213.0000	0.00340238
1212.5000	0.00340651
1212.0000	0.00340883
1211.5000	0.00341048
1211.0000	0.00341759
1210.5000	0.00342031
1210.0000	0.00342349
1209.5000	0.003429
1209.0000	0.00343506
1208.5000	0.00344008
1208.0000	0.00344622
1207.5000	0.00345268
1207.0000	0.00345745
1206.5000	0.00346126
1206.0000	0.00346952
1205.5000	0.0034757
1205.0000	0.00348214
1204.5000	0.00348492
1204.0000	0.00348733
1203.5000	0.00348964
1203.0000	0.00349504
1202.5000	0.00349947
1202.0000	0.00350574
1201.5000	0.00350781
1201.0000	0.00351161
1200.5000	0.00351392
1200.0000	0.00352066
1199.5000	0.00352449
1199.0000	0.00353093
1198.5000	0.00353237
1198.0000	0.00353712
1197.5000	0.0035381
1197.0000	0.00354348
1196.5000	0.00354932
1196.0000	0.00355617
1195.5000	0.00356172
1195.0000	0.00356959
1194.5000	0.00357534
1194.0000	0.00357996
1193.5000	0.0035859
1193.0000	0.00359189
1192.5000	0.00359766
1192.0000	0.00360874
1191.5000	0.00361326
1191.0000	0.00361871
1190.5000	0.00362463
1190.0000	0.00362884
1189.5000	0.00363426
1189.0000	0.00364093
1188.5000	0.00364491
1188.0000	0.0036537
1187.5000	0.00366082
1187.0000	0.00366377
1186.5000	0.00366774
1186.0000	0.00367018
1185.5000	0.00367248
1185.0000	0.00367801
1184.5000	0.00368234
1184.0000	0.00368475
1183.5000	0.00368876
1183.0000	0.00369258
1182.5000	0.00369361
1182.0000	0.00369579
1181.5000	0.00369819
1181.0000	0.0037003
1180.5000	0.00370348
1180.0000	0.0037083
1179.5000	0.00371405
1179.0000	0.00372209
1178.5000	0.00372691
1178.0000	0.00373256
1177.5000	0.00374053
1177.0000	0.0037472
1176.5000	0.00375254
1176.0000	0.00376064
1175.5000	0.00376648
1175.0000	0.00377414
1174.5000	0.00378106
1174.0000	0.00378953
1173.5000	0.00379625
1173.0000	0.00380124
1172.5000	0.00380612
1172.0000	0.00381571
1171.5000	0.00382296
1171.0000	0.00382893
1170.5000	0.00383439
1170.0000	0.0038438
1169.5000	0.00385168
1169.0000	0.00386034
1168.5000	0.00386579
1168.0000	0.00386902
1167.5000	0.00387516
1167.0000	0.00388202
1166.5000	0.00388942
1166.0000	0.00389556
1165.5000	0.00389796
1165.0000	0.00389927
1164.5000	0.00390602
1164.0000	0.00391123
1163.5000	0.00391457
1163.0000	0.00392051
1162.5000	0.00392627
1162.0000	0.00393193
1161.5000	0.0039361
1161.0000	0.00394021
1160.5000	0.00394766
1160.0000	0.00395297
1159.5000	0.00395572
1159.0000	0.00396138
1158.5000	0.00396808
1158.0000	0.00397284
1157.5000	0.0039741
1157.0000	0.00397827
1156.5000	0.00398288
1156.0000	0.00398774
1155.5000	0.00399382
1155.0000	0.00400508
1154.5000	0.00401155
1154.0000	0.00401702
1153.5000	0.00402143
1153.0000	0.00402736
1152.5000	0.00403387
1152.0000	0.00404246
1151.5000	0.0040484
1151.0000	0.00405878
1150.5000	0.00406338
1150.0000	0.00407182
1149.5000	0.0040766
1149.0000	0.00408189
1148.5000	0.00408545
1148.0000	0.00409064
1147.5000	0.00409705
1147.0000	0.00410459
1146.5000	0.00411199
1146.0000	0.00411738
1145.5000	0.00412309
1145.0000	0.00412668
1144.5000	0.00413198
1144.0000	0.00413886
1143.5000	0.00414297
1143.0000	0.00414904
1142.5000	0.00415382
1142.0000	0.00416239
1141.5000	0.0041674
1141.0000	0.00417097
1140.5000	0.00417481
1140.0000	0.00417718
1139.5000	0.00418398
1139.0000	0.00418913
1138.5000	0.00419844
1138.0000	0.00421266
1137.5000	0.00421951
1137.0000	0.00422911
1136.5000	0.00423856
1136.0000	0.0042465
1135.5000	0.00425306
1135.0000	0.00425907
1134.5000	0.00426602
1134.0000	0.00427548
1133.5000	0.00428476
1133.0000	0.00429315
1132.5000	0.00430193
1132.0000	0.00430677
1131.5000	0.00430883
1131.0000	0.00431459
1130.5000	0.0043205
1130.0000	0.00432848
1129.5000	0.00433433
1129.0000	0.00434278
1128.5000	0.00435033
1128.0000	0.00435654
1127.5000	0.00436294
1127.0000	0.00437248
1126.5000	0.00437807
1126.0000	0.00438637
1125.5000	0.00439268
1125.0000	0.00440032
1124.5000	0.00440568
1124.0000	0.00441306
1123.5000	0.00441763
1123.0000	0.0044213
1122.5000	0.00442447
1122.0000	0.0044321
1121.5000	0.00443867
1121.0000	0.00444415
1120.5000	0.00444837
1120.0000	0.00445741
1119.5000	0.00446152
1119.0000	0.00447002
1118.5000	0.00447747
1118.0000	0.00448546
1117.5000	0.004491
1117.0000	0.00450023
1116.5000	0.00450829
1116.0000	0.00451794
1115.5000	0.00452677
1115.0000	0.00453638
1114.5000	0.00454472
1114.0000	0.00455078
1113.5000	0.00455486
1113.0000	0.0045609
1112.5000	0.00456818
1112.0000	0.00457367
1111.5000	0.00458003
1111.0000	0.00458827
1110.5000	0.00459605
1110.0000	0.00460995
1109.5000	0.00461527
1109.0000	0.00462024
1108.5000	0.004625
1108.0000	0.00463617
1107.5000	0.00464591
1107.0000	0.00465611
1106.5000	0.00466334
1106.0000	0.0046719
1105.5000	0.00467877
1105.0000	0.00468965
1104.5000	0.00469523
1104.0000	0.0047027
1103.5000	0.00470534
1103.0000	0.00471415
1102.5000	0.00471976
1102.0000	0.0047256
1101.5000	0.00473243
1101.0000	0.00473924
1100.5000	0.004747
1100.0000	0.00475706
1099.5000	0.00476286
1099.0000	0.00477308
1098.5000	0.00478072
1098.0000	0.00478791
1097.5000	0.00479299
1097.0000	0.00480342
1096.5000	0.00481338
1096.0000	0.00482654
1095.5000	0.00483454
1095.0000	0.00484518
1094.5000	0.00485245
1094.0000	0.00486056
1093.5000	0.00486624
1093.0000	0.00487637
1092.5000	0.0048808
1092.0000	0.00488793
1091.5000	0.00489465
1091.0000	0.00490356
1090.5000	0.00490903
1090.0000	0.00491759
1089.5000	0.00492314
1089.0000	0.00493259
1088.5000	0.00494007
1088.0000	0.00495053
1087.5000	0.00495845
1087.0000	0.00496875
1086.5000	0.00497369
1086.0000	0.0049858
1085.5000	0.00499497
1085.0000	0.00501104
1084.5000	0.00502135
1084.0000	0.00503114
1083.5000	0.00503815
1083.0000	0.00504948
1082.5000	0.00505479
1082.0000	0.00506551
1081.5000	0.00507363
1081.0000	0.0050814
1080.5000	0.00509033
1080.0000	0.00509907
1079.5000	0.00510545
1079.0000	0.00511519
1078.5000	0.00512016
1078.0000	0.00513243
1077.5000	0.0051393
1077.0000	0.00514858
1076.5000	0.00515404
1076.0000	0.00516433
1075.5000	0.00517061
1075.0000	0.00517818
1074.5000	0.00518782
1074.0000	0.00519774
1073.5000	0.00520391
1073.0000	0.00521521
1072.5000	0.00522203
1072.0000	0.00522916
1071.5000	0.00523541
1071.0000	0.00524722
1070.5000	0.00525606
1070.0000	0.00526881
1069.5000	0.00527729
1069.0000	0.00529052
1068.5000	0.00529905
1068.0000	0.00530806
1067.5000	0.00531409
1067.0000	0.00532617
1066.5000	0.00533304
1066.0000	0.00534586
1065.5000	0.00535548
1065.0000	0.0053671
1064.5000	0.00537594
1064.0000	0.00538854
1063.5000	0.00539831
1063.0000	0.00541008
1062.5000	0.00541698
1062.0000	0.00542702
1061.5000	0.00543492
1061.0000	0.00544819
1060.5000	0.00545717
1060.0000	0.00546722
1059.5000	0.00547417
1059.0000	0.00548552
1058.5000	0.0054941
1058.0000	0.00550272
1057.5000	0.00550945
1057.0000	0.00551767
1056.5000	0.00552546
1056.0000	0.00553807
1055.5000	0.00554791
1055.0000	0.00556119
1054.5000	0.00557018
1054.0000	0.00558169
1053.5000	0.00559166
1053.0000	0.00560662
1052.5000	0.00561262
1052.0000	0.00562128
1051.5000	0.00563001
1051.0000	0.00564515
1050.5000	0.00565125
1050.0000	0.00566157
1049.5000	0.00567031
1049.0000	0.00568221
1048.5000	0.00568915
1048.0000	0.00570122
1047.5000	0.00570908
1047.0000	0.00572241
1046.5000	0.00572743
1046.0000	0.00574459
1045.5000	0.0057518
1045.0000	0.005761
1044.5000	0.00577094
1044.0000	0.00578618
1043.5000	0.00579439
1043.0000	0.00580323
1042.5000	0.00581007
1042.0000	0.00582509
1041.5000	0.00583631
1041.0000	0.00584829
1040.5000	0.00585371
1040.0000	0.00587026
1039.5000	0.00587823
1039.0000	0.00589436
1038.5000	0.00590528
1038.0000	0.00591606
1037.5000	0.00592546
1037.0000	0.00593777
1036.5000	0.00594876
1036.0000	0.00596479
1035.5000	0.00597474
1035.0000	0.00598791
1034.5000	0.00599728
1034.0000	0.00601305
1033.5000	0.00602025
1033.0000	0.00603674
1032.5000	0.00604516
1032.0000	0.00605968
1031.5000	0.00606723
1031.0000	0.00608071
1030.5000	0.00609393
1030.0000	0.00611106
1029.5000	0.006116
1029.0000	0.00612516
1028.5000	0.00613155
1028.0000	0.00614643
1027.5000	0.00615691
1027.0000	0.00617072
1026.5000	0.00617891
1026.0000	0.00619209
1025.5000	0.00620045
1025.0000	0.00621793
1024.5000	0.0062284
1024.0000	0.00623969
1023.5000	0.00624865
1023.0000	0.00626804
1022.5000	0.00627923
1022.0000	0.00629554
1021.5000	0.0063084
1021.0000	0.00632574
1020.5000	0.00633532
1020.0000	0.00635192
1019.5000	0.006364
1019.0000	0.00637844
1018.5000	0.00638717
1018.0000	0.00640173
1017.5000	0.00641223
1017.0000	0.00643048
1016.5000	0.00643857
1016.0000	0.00645445
1015.5000	0.00646446
1015.0000	0.00647781
1014.5000	0.00648627
1014.0000	0.00650423
1013.5000	0.00651494
1013.0000	0.00652861
1012.5000	0.00654165
1012.0000	0.00655993
1011.5000	0.00657253
1011.0000	0.00658692
1010.5000	0.00659597
1010.0000	0.00661654
1009.5000	0.00662847
1009.0000	0.00664453
1008.5000	0.00665454
1008.0000	0.00667116
1007.5000	0.00668427
1007.0000	0.00670271
1006.5000	0.00671569
1006.0000	0.00673407
1005.5000	0.00674515
1005.0000	0.0067624
1004.5000	0.00677423
1004.0000	0.0067943
1003.5000	0.00680664
1003.0000	0.00682276
1002.5000	0.00683393
1002.0000	0.00685379
1001.5000	0.00686668
1001.0000	0.00688215
1000.5000	0.00689516
1000.0000	0.00691034
999.5000	0.00692341
999.0000	0.00693853
998.5000	0.00694869
998.0000	0.00696408
997.5000	0.00697288
997.0000	0.00699077
996.5000	0.00700436
996.0000	0.00702033
995.5000	0.00703209
995.0000	0.00705179
994.5000	0.00706473
994.0000	0.00708386
993.5000	0.00709628
993.0000	0.00711375
992.5000	0.0071282
992.0000	0.00714691
991.5000	0.00715823
991.0000	0.00717773
990.5000	0.00719036
990.0000	0.00720721
989.5000	0.00722262
989.0000	0.00724111
988.5000	0.00725149
988.0000	0.00726905
987.5000	0.00727941
987.0000	0.00730162
986.5000	0.0073149
986.0000	0.00733286
985.5000	0.00734875
985.0000	0.00737074
984.5000	0.00738691
984.0000	0.00740421
983.5000	0.0074221
983.0000	0.00744121
982.5000	0.00745425
982.0000	0.00747345
981.5000	0.00748655
981.0000	0.00750896
980.5000	0.00752057
980.0000	0.00754019
979.5000	0.00755501
979.0000	0.00757375
978.5000	0.0075886
978.0000	0.00760826
977.5000	0.00762171
977.0000	0.00764325
976.5000	0.00766006
976.0000	0.00768035
975.5000	0.00769597
975.0000	0.00771759
974.5000	0.00773324
974.0000	0.00775467
973.5000	0.00777123
973.0000	0.00779469
972.5000	0.0078109
972.0000	0.00783559
971.5000	0.00784896
971.0000	0.00787081
970.5000	0.0078845
970.0000	0.00790351
969.5000	0.0079177
969.0000	0.00793908
968.5000	0.00795471
968.0000	0.00797783
967.5000	0.00799621
967.0000	0.00801418
966.5000	0.00803043
966.0000	0.00805271
965.5000	0.00806671
965.0000	0.00809529
964.5000	0.00811213
964.0000	0.00813672
963.5000	0.00815642
963.0000	0.00818803
962.5000	0.0082041
962.0000	0.00823032
961.5000	0.00824822
961.0000	0.00827429
960.5000	0.00829468
960.0000	0.00831987
959.5000	0.00833554
959.0000	0.00835846
958.5000	0.00837663
958.0000	0.00839955
957.5000	0.00842027
957.0000	0.00844577
956.5000	0.0084644
956.0000	0.0084881
955.5000	0.00850502
955.0000	0.00853006
954.5000	0.00854512
954.0000	0.00857063
953.5000	0.00858997
953.0000	0.00861895
952.5000	0.00864094
952.0000	0.00867049
951.5000	0.00869084
951.0000	0.00871628
950.5000	0.008737
950.0000	0.00876119
949.5000	0.00878501
949.0000	0.00881633
948.5000	0.00883502
948.0000	0.00886583
947.5000	0.00888531
947.0000	0.00891023
946.5000	0.00893305
946.0000	0.00895762
945.5000	0.00897729
945.0000	0.00900688
944.5000	0.00902704
944.0000	0.00905405
943.5000	0.00907829
943.0000	0.00910097
942.5000	0.00911735
942.0000	0.00914877
941.5000	0.00917108
941.0000	0.00920334
940.5000	0.00922494
940.0000	0.00925407
939.5000	0.00928197
939.0000	0.00931026
938.5000	0.00933194
938.0000	0.00936567
937.5000	0.00938915
937.0000	0.00942437
936.5000	0.00945522
936.0000	0.00949938
935.5000	0.00952207
935.0000	0.00955135
934.5000	0.00957472
934.0000	0.00961088
933.5000	0.00963826
933.0000	0.00966861
932.5000	0.0096976
932.0000	0.00973394
931.5000	0.00976034
931.0000	0.00979696
930.5000	0.0098237
930.0000	0.00986008
929.5000	0.00988454
929.0000	0.00992464
928.5000	0.00995863
928.0000	0.0100011
927.5000	0.0100271
927.0000	0.0100656
926.5000	0.0100946
926.0000	0.0101366
925.5000	0.0101645
925.0000	0.0102041
924.5000	0.0102332
924.0000	0.0102727
923.5000	0.0102979
923.0000	0.0103423
922.5000	0.0103677
922.0000	0.0104071
921.5000	0.0104344
921.0000	0.010483
920.5000	0.010517
920.0000	0.0105534
919.5000	0.0105855
919.0000	0.0106284
918.5000	0.0106596
918.0000	0.0107033
917.5000	0.0107362
917.0000	0.0107823
916.5000	0.0108169
916.0000	0.0108692
915.5000	0.0109042
915.0000	0.0109534
914.5000	0.0109811
914.0000	0.0110315
913.5000	0.0110655
913.0000	0.0111117
912.5000	0.0111489
912.0000	0.0112018
911.5000	0.0112404
911.0000	0.0112925
910.5000	0.0113327
910.0000	0.0113854
909.5000	0.0114217
909.0000	0.0114711
908.5000	0.0115098
908.0000	0.0115675
907.5000	0.0116117
907.0000	0.0116705
906.5000	0.0117102
906.0000	0.0117643
905.5000	0.0118059
905.0000	0.0118638
904.5000	0.0119041
904.0000	0.0119624
903.5000	0.0120031
903.0000	0.01206
902.5000	0.0121063
902.0000	0.0121723
901.5000	0.0122182
901.0000	0.0122853
900.5000	0.0123332
900.0000	0.0124002
899.5000	0.0124463
899.0000	0.0125128
898.5000	0.0125603
898.0000	0.012632
897.5000	0.0126759
897.0000	0.0127505
896.5000	0.0128089
896.0000	0.0128777
895.5000	0.0129247
895.0000	0.0129956
894.5000	0.0130409
894.0000	0.0131158
893.5000	0.0131651
893.0000	0.0132435
892.5000	0.0132968
892.0000	0.0133729
891.5000	0.0134282
891.0000	0.0135131
890.5000	0.0135645
890.0000	0.0136457
889.5000	0.0137047
889.0000	0.0137914
888.5000	0.0138576
888.0000	0.0139535
887.5000	0.0140135
887.0000	0.0141082
886.5000	0.0141699
886.0000	0.0142748
885.5000	0.0143394
885.0000	0.0144359
884.5000	0.0145047
884.0000	0.0146097
883.5000	0.0146846
883.0000	0.0147852
882.5000	0.0148592
882.0000	0.014959
881.5000	0.0150307
881.0000	0.0151456
880.5000	0.0152235
880.0000	0.0153357
879.5000	0.0154086
879.0000	0.0155321
878.5000	0.0156132
878.0000	0.0157381
877.5000	0.0158167
877.0000	0.0159501
876.5000	0.0160432
876.0000	0.0161748
875.5000	0.016263
875.0000	0.0163979
874.5000	0.0164927
874.0000	0.0166324
873.5000	0.0167298
873.0000	0.0168758
872.5000	0.0169779
872.0000	0.0171231
871.5000	0.0172277
871.0000	0.0173861
870.5000	0.01749
870.0000	0.0176482
869.5000	0.017755
869.0000	0.0179254
868.5000	0.0180445
868.0000	0.0182134
867.5000	0.0183328
867.0000	0.0185085
866.5000	0.0186242
866.0000	0.0188009
865.5000	0.0189213
865.0000	0.019105
864.5000	0.0192323
864.0000	0.0194242
863.5000	0.0195548
863.0000	0.0197713
862.5000	0.0199028
862.0000	0.0201222
861.5000	0.0202647
861.0000	0.0204917
860.5000	0.020646
860.0000	0.0208808
859.5000	0.0210368
859.0000	0.021278
858.5000	0.0214452
858.0000	0.0216922
857.5000	0.0218601
857.0000	0.022115
856.5000	0.0222835
856.0000	0.0225495
855.5000	0.0227207
855.0000	0.0229833
854.5000	0.0231648
854.0000	0.0234362
853.5000	0.0236212
853.0000	0.0239081
852.5000	0.0241144
852.0000	0.0244032
851.5000	0.0246074
851.0000	0.0249164
850.5000	0.0251191
850.0000	0.0243124
849.5000	0.0245187
849.0000	0.0248117
848.5000	0.0250459
848.0000	0.0254117
847.5000	0.0256296
847.0000	0.0259498
846.5000	0.0261811
846.0000	0.0265352
845.5000	0.0267523
845.0000	0.0270644
844.5000	0.0272994
844.0000	0.0276553
843.5000	0.0278639
843.0000	0.0282017
842.5000	0.0284631
842.0000	0.0287809
841.5000	0.0290249
841.0000	0.029396
840.5000	0.029656
840.0000	0.0300329
839.5000	0.0303203
839.0000	0.0307497
838.5000	0.0310484
838.0000	0.031517
837.5000	0.0318131
837.0000	0.0322658
836.5000	0.0325524
836.0000	0.0330289
835.5000	0.0333462
835.0000	0.0338061
834.5000	0.034126
834.0000	0.0345601
833.5000	0.0349184
833.0000	0.0353922
832.5000	0.0357205
832.0000	0.0361868
831.5000	0.0365367
831.0000	0.0370508
830.5000	0.0373679
830.0000	0.0379525
829.5000	0.0382657
829.0000	0.0387858
828.5000	0.0390874
828.0000	0.0396242
827.5000	0.0399679
827.0000	0.0404932
826.5000	0.0408389
826.0000	0.0413579
825.5000	0.0417469
825.0000	0.0422542
824.5000	0.0426203
824.0000	0.0431697
823.5000	0.0435136
823.0000	0.0440772
822.5000	0.044432
822.0000	0.0450357
821.5000	0.045427
821.0000	0.0459798
820.5000	0.0463462
820.0000	0.0469294
819.5000	0.0473077
819.0000	0.0478861
818.5000	0.0482473
818.0000	0.0488235
817.5000	0.04919
817.0000	0.049725
816.5000	0.050113
816.0000	0.0507024
815.5000	0.0511068
815.0000	0.0517187
814.5000	0.0520921
814.0000	0.0526998
813.5000	0.0531005
813.0000	0.0537216
812.5000	0.0541311
812.0000	0.0547376
811.5000	0.055147
811.0000	0.0557594
810.5000	0.0561835
810.0000	0.0568027
809.5000	0.0572118
809.0000	0.0577989
808.5000	0.0581923
808.0000	0.0587957
807.5000	0.0591874
807.0000	0.0597515
806.5000	0.0601518
806.0000	0.0607552
805.5000	0.061166
805.0000	0.061746
804.5000	0.0621366
804.0000	0.0627466
803.5000	0.0631177
803.0000	0.0636964
802.5000	0.0641371
802.0000	0.0647449
801.5000	0.0651501
801.0000	0.0657398
800.5000	0.0661501
800.0000	0.0667386
799.5000	0.0671415
799.0000	0.0677373
798.5000	0.0681496
798.0000	0.0687189
797.5000	0.0691002
797.0000	0.0696771
796.5000	0.0700747
796.0000	0.0706178
795.5000	0.070975
795.0000	0.0715287
794.5000	0.0719396
794.0000	0.0724797
793.5000	0.0728491
793.0000	0.0734184
792.5000	0.0738134
792.0000	0.0743632
791.5000	0.0747645
791.0000	0.0753446
790.5000	0.07572
790.0000	0.0762745
789.5000	0.0766459
789.0000	0.0772201
788.5000	0.077572
788.0000	0.078121
787.5000	0.0784894
787.0000	0.0790441
786.5000	0.0794335
786.0000	0.079949
785.5000	0.0803417
785.0000	0.0808214
784.5000	0.0811923
784.0000	0.0817257
783.5000	0.0820629
783.0000	0.0825795
782.5000	0.0829286
782.0000	0.0834513
781.5000	0.0837912
781.0000	0.0842961
780.5000	0.0846282
780.0000	0.0850758
779.5000	0.0853852
779.0000	0.0858731
778.5000	0.086196
778.0000	0.0866704
777.5000	0.0870165
777.0000	0.0875176
776.5000	0.0878513
776.0000	0.0883412
775.5000	0.0886594
775.0000	0.0891591
774.5000	0.0894737
774.0000	0.0899714
773.5000	0.0903016
773.0000	0.0907774
772.5000	0.0910949
772.0000	0.0915418
771.5000	0.0918522
771.0000	0.0922923
770.5000	0.0926012
770.0000	0.0930292
769.5000	0.0933447
769.0000	0.0937788
768.5000	0.094074
768.0000	0.0945084
767.5000	0.094789
767.0000	0.0952481
766.5000	0.0955446
766.0000	0.0960191
765.5000	0.0963326
765.0000	0.0967762
764.5000	0.0970299
764.0000	0.0974559
763.5000	0.0977852
763.0000	0.0982059
762.5000	0.0984948
762.0000	0.0989401
761.5000	0.0992809
761.0000	0.0997226
760.5000	0.100005
760.0000	0.100422
759.5000	0.100723
759.0000	0.101171
758.5000	0.101481
758.0000	0.10196
757.5000	0.102256
757.0000	0.102716
756.5000	0.103013
756.0000	0.103488
755.5000	0.103771
755.0000	0.104205
754.5000	0.10451
754.0000	0.104958
753.5000	0.105266
753.0000	0.105721
752.5000	0.106012
752.0000	0.106452
751.5000	0.10677
751.0000	0.107235
750.5000	0.107545
750.0000	0.10801
749.5000	0.108292
749.0000	0.108744
748.5000	0.109063
748.0000	0.109502
747.5000	0.109817
747.0000	0.110261
746.5000	0.110555
746.0000	0.111036
745.5000	0.111335
745.0000	0.111802
744.5000	0.112108
744.0000	0.112513
743.5000	0.112805
743.0000	0.113254
742.5000	0.113533
742.0000	0.113959
741.5000	0.114247
741.0000	0.11466
740.5000	0.114964
740.0000	0.115346
739.5000	0.115621
739.0000	0.116033
738.5000	0.116311
738.0000	0.116736
737.5000	0.117012
737.0000	0.117414
736.5000	0.117687
736.0000	0.118084
735.5000	0.118337
735.0000	0.118686
734.5000	0.118926
734.0000	0.119338
733.5000	0.11961
733.0000	0.120021
732.5000	0.120271
732.0000	0.120646
731.5000	0.120901
731.0000	0.121275
730.5000	0.12152
730.0000	0.121865
729.5000	0.122094
729.0000	0.122467
728.5000	0.122716
728.0000	0.123072
727.5000	0.123299
727.0000	0.123611
726.5000	0.123827
726.0000	0.124166
725.5000	0.124373
725.0000	0.124668
724.5000	0.12485
724.0000	0.125115
723.5000	0.125299
723.0000	0.125567
722.5000	0.125722
722.0000	0.125999
721.5000	0.126146
721.0000	0.126385
720.5000	0.126535
720.0000	0.126742
719.5000	0.126899
719.0000	0.127099
718.5000	0.127223
718.0000	0.127459
717.5000	0.127603
717.0000	0.127813
716.5000	0.127934
716.0000	0.128135
715.5000	0.128208
715.0000	0.128368
714.5000	0.128463
714.0000	0.128614
713.5000	0.128696
713.0000	0.12879
712.5000	0.128868
712.0000	0.128971
711.5000	0.129003
711.0000	0.129082
710.5000	0.129123
710.0000	0.129195
709.5000	0.129207
709.0000	0.129265
708.5000	0.129264
708.0000	0.129267
707.5000	0.129256
707.0000	0.12926
706.5000	0.129237
706.0000	0.129208
705.5000	0.129188
705.0000	0.129142
704.5000	0.129099
704.0000	0.129016
703.5000	0.12897
703.0000	0.128887
702.5000	0.12882
702.0000	0.128725
701.5000	0.128659
701.0000	0.128558
700.5000	0.128472
700.0000	0.128365
699.5000	0.128272
699.0000	0.128148
698.5000	0.128045
698.0000	0.127894
697.5000	0.127781
697.0000	0.127592
696.5000	0.127456
696.0000	0.127263
695.5000	0.127133
695.0000	0.126929
694.5000	0.126754
694.0000	0.126514
693.5000	0.126344
693.0000	0.126072
692.5000	0.125886
692.0000	0.125627
691.5000	0.12545
691.0000	0.125176
690.5000	0.124989
690.0000	0.124732
689.5000	0.124555
689.0000	0.124258
688.5000	0.124068
688.0000	0.12379
687.5000	0.12362
687.0000	0.123347
686.5000	0.123175
686.0000	0.122896
685.5000	0.122694
685.0000	0.12242
684.5000	0.122235
684.0000	0.121947
683.5000	0.121743
683.0000	0.121449
682.5000	0.121242
682.0000	0.120938
681.5000	0.120733
681.0000	0.120394
680.5000	0.120178
680.0000	0.119861
679.5000	0.11963
679.0000	0.119317
678.5000	0.119091
678.0000	0.118737
677.5000	0.118525
677.0000	0.118194
676.5000	0.117959
676.0000	0.117621
675.5000	0.117388
675.0000	0.117031
674.5000	0.116798
674.0000	0.116424
673.5000	0.116189
673.0000	0.11582
672.5000	0.115585
672.0000	0.115226
671.5000	0.114962
671.0000	0.114569
670.5000	0.114334
670.0000	0.113961
669.5000	0.113736
669.0000	0.113361
668.5000	0.113109
668.0000	0.112736
667.5000	0.112485
667.0000	0.112115
666.5000	0.111864
666.0000	0.111476
665.5000	0.111217
665.0000	0.110859
664.5000	0.110609
664.0000	0.110219
663.5000	0.109961
663.0000	0.109576
662.5000	0.109309
662.0000	0.108912
661.5000	0.108654
661.0000	0.108265
660.5000	0.10802
660.0000	0.107629
659.5000	0.107368
659.0000	0.106967
658.5000	0.106696
658.0000	0.106285
657.5000	0.106009
657.0000	0.105581
656.5000	0.105305
656.0000	0.104916
655.5000	0.104635
655.0000	0.104225
654.5000	0.103954
654.0000	0.103528
653.5000	0.10325
653.0000	0.102843
652.5000	0.102548
652.0000	0.102133
651.5000	0.101855
651.0000	0.101425
650.5000	0.101154
650.0000	0.100733
649.5000	0.100429
649.0000	0.100014
648.5000	0.0997212
648.0000	0.099299
647.5000	0.098996
647.0000	0.0985695
646.5000	0.0982609
646.0000	0.0978169
645.5000	0.097529
645.0000	0.0970877
644.5000	0.096806
644.0000	0.0963339
643.5000	0.0960447
643.0000	0.0956066
642.5000	0.0953003
642.0000	0.0948424
641.5000	0.0945246
641.0000	0.0940823
640.5000	0.0937717
640.0000	0.0933118
639.5000	0.0930075
639.0000	0.0925558
638.5000	0.0922425
638.0000	0.0917672
637.5000	0.0914696
637.0000	0.090995
636.5000	0.0906881
636.0000	0.0902518
635.5000	0.0899324
635.0000	0.0894722
634.5000	0.0891666
634.0000	0.0886882
633.5000	0.0883716
633.0000	0.0879244
632.5000	0.0875977
632.0000	0.0871153
631.5000	0.0868085
631.0000	0.0863306
630.5000	0.0860146
630.0000	0.0855276
629.5000	0.0851907
629.0000	0.084709
628.5000	0.0843873
628.0000	0.0839123
627.5000	0.0836089
627.0000	0.0831216
626.5000	0.082795
626.0000	0.082323
625.5000	0.0820064
625.0000	0.0815187
624.5000	0.0811983
624.0000	0.080708
623.5000	0.0804068
623.0000	0.0799599
622.5000	0.0796371
622.0000	0.0791507
621.5000	0.078827
621.0000	0.0783447
620.5000	0.0780164
620.0000	0.0775548
619.5000	0.0772321
619.0000	0.0767624
618.5000	0.0764325
618.0000	0.0759682
617.5000	0.0756447
617.0000	0.0752001
616.5000	0.0748956
616.0000	0.0744266
615.5000	0.0741257
615.0000	0.0736628
614.5000	0.0733487
614.0000	0.0728795
613.5000	0.0725784
613.0000	0.0721283
612.5000	0.0718303
612.0000	0.0713983
611.5000	0.0710963
611.0000	0.0706631
610.5000	0.0703622
610.0000	0.0699186
609.5000	0.0696331
609.0000	0.0691873
608.5000	0.0688936
608.0000	0.0684692
607.5000	0.0681863
607.0000	0.0677333
606.5000	0.0674437
606.0000	0.0669993
605.5000	0.066714
605.0000	0.0662911
604.5000	0.0660003
604.0000	0.0655732
603.5000	0.0652818
603.0000	0.064859
602.5000	0.0645763
602.0000	0.0641517
601.5000	0.0638646
601.0000	0.0634527
600.5000	0.0631763
600.0000	0.0627593
599.5000	0.0624878
599.0000	0.0620905
598.5000	0.0618169
598.0000	0.0614097
597.5000	0.061139
597.0000	0.0607302
596.5000	0.0604539
596.0000	0.0600395
595.5000	0.0597794
595.0000	0.0593753
594.5000	0.0591105
594.0000	0.058722
593.5000	0.058469
593.0000	0.0580849
592.5000	0.0578199
592.0000	0.057439
591.5000	0.0571796
591.0000	0.0568061
590.5000	0.0565627
590.0000	0.0562024
589.5000	0.0559546
589.0000	0.0555695
588.5000	0.055333
588.0000	0.0549456
587.5000	0.0546933
587.0000	0.0543194
586.5000	0.0540623
586.0000	0.0537036
585.5000	0.0534749
585.0000	0.0531131
584.5000	0.0528773
584.0000	0.0524888
583.5000	0.0522582
583.0000	0.0518983
582.5000	0.0516545
582.0000	0.0512908
581.5000	0.0510473
581.0000	0.0506939
580.5000	0.0504534
580.0000	0.0501027
579.5000	0.0498624
579.0000	0.0494924
578.5000	0.0492555
578.0000	0.0489152
577.5000	0.0486852
577.0000	0.048332
576.5000	0.0481038
576.0000	0.0477718
575.5000	0.0475471
575.0000	0.0472264
574.5000	0.0470065
574.0000	0.0466897
573.5000	0.0464614
573.0000	0.0461346
572.5000	0.0459242
572.0000	0.0455813
571.5000	0.0453814
571.0000	0.0450603
570.5000	0.0448397
570.0000	0.0445043
569.5000	0.0442835
569.0000	0.0439627
568.5000	0.0437337
568.0000	0.0433994
567.5000	0.0431971
567.0000	0.0429005
566.5000	0.0426921
566.0000	0.0423848
565.5000	0.0421883
565.0000	0.0418803
564.5000	0.0416709
564.0000	0.0413817
563.5000	0.0411851
563.0000	0.0408913
562.5000	0.0406863
562.0000	0.0403949
561.5000	0.0402121
561.0000	0.0399113
560.5000	0.0397171
560.0000	0.0394266
559.5000	0.0392226
559.0000	0.0389333
558.5000	0.0387389
558.0000	0.0384563
557.5000	0.0382542
557.0000	0.0379736
556.5000	0.0377951
556.0000	0.0375264
555.5000	0.0373445
555.0000	0.0370611
554.5000	0.0368678
554.0000	0.0365872
553.5000	0.0364072
553.0000	0.0361252
552.5000	0.0359493
552.0000	0.0356936
551.5000	0.0355049
551.0000	0.0352444
550.5000	0.0350795
550.0000	0.0348088
549.5000	0.0346341
549.0000	0.0343872
548.5000	0.0342059
548.0000	0.0339571
547.5000	0.0337748
547.0000	0.0335432
546.5000	0.0333786
546.0000	0.033128
545.5000	0.0329624
545.0000	0.0327261
544.5000	0.032557
544.0000	0.0322959
543.5000	0.0321407
543.0000	0.0319021
542.5000	0.0317456
542.0000	0.0315159
541.5000	0.0313618
541.0000	0.0311394
540.5000	0.0309777
540.0000	0.0307449
539.5000	0.0305929
539.0000	0.030359
538.5000	0.0302018
538.0000	0.0299844
537.5000	0.0298408
537.0000	0.0296084
536.5000	0.0294636
536.0000	0.0292204
535.5000	0.029058
535.0000	0.0288366
534.5000	0.0286974
534.0000	0.0284976
533.5000	0.0283539
533.0000	0.0281256
532.5000	0.0279947
532.0000	0.0277747
531.5000	0.0276283
531.0000	0.027447
530.5000	0.0273061
530.0000	0.0271315
529.5000	0.0270223
529.0000	0.0268412
528.5000	0.0267152
528.0000	0.0265164
527.5000	0.0263777
527.0000	0.0261958
526.5000	0.0260643
526.0000	0.0258609
525.5000	0.0257406
525.0000	0.0255554
524.5000	0.0254169
524.0000	0.0252564
523.5000	0.0251311
523.0000	0.0249395
522.5000	0.0248195
522.0000	0.0246297
521.5000	0.0245064
521.0000	0.0243404
520.5000	0.0242295
520.0000	0.0240785
519.5000	0.0239884
519.0000	0.0238107
518.5000	0.0237133
518.0000	0.02354
517.5000	0.0234308
517.0000	0.0232551
516.5000	0.0231389
516.0000	0.0229981
515.5000	0.0228984
515.0000	0.0227702
514.5000	0.0226896
514.0000	0.0225152
513.5000	0.0224047
513.0000	0.02227
512.5000	0.0221983
512.0000	0.0220667
511.5000	0.0219884
511.0000	0.0218492
510.5000	0.0217584
510.0000	0.0216508
509.5000	0.0215729
509.0000	0.0214528
508.5000	0.0213748
508.0000	0.0212449
507.5000	0.0211663
507.0000	0.0210565
506.5000	0.020984
506.0000	0.0208741
505.5000	0.0207899
505.0000	0.020651
504.5000	0.0205723
504.0000	0.0204795
503.5000	0.0204196
503.0000	0.0203236
502.5000	0.0202698
502.0000	0.0201632
501.5000	0.020125
501.0000	0.0200576
500.5000	0.0200147
500.0000	0.0199408
499.5000	0.0198977
499.0000	0.0198655
498.5000	0.0198485
498.0000	0.0197833
497.5000	0.0197435
497.0000	0.0196873
496.5000	0.0196462
496.0000	0.0195895
495.5000	0.0195766
495.0000	0.019514
494.5000	0.019485
494.0000	0.0194274
493.5000	0.0194134
493.0000	0.0193723
492.5000	0.0193355
492.0000	0.0192974
491.5000	0.019275
491.0000	0.0192532
490.5000	0.0192719
490.0000	0.0192387
489.5000	0.0192433
489.0000	0.0192159
488.5000	0.0192041
488.0000	0.0192279
487.5000	0.0192202
487.0000	0.0192084
486.5000	0.0192207
486.0000	0.0192606
485.5000	0.0192788
485.0000	0.0193054
484.5000	0.0193457
484.0000	0.0193727
483.5000	0.0193966
483.0000	0.019439
482.5000	0.0194732
482.0000	0.0195144
481.5000	0.0195262
481.0000	0.0195971
480.5000	0.0196262
480.0000	0.0196521
479.5000	0.0196754
479.0000	0.0197217
478.5000	0.019759
478.0000	0.019805
477.5000	0.0198494
477.0000	0.0199245
476.5000	0.01997
476.0000	0.0200636
475.5000	0.0201312
475.0000	0.02023
474.5000	0.0202864
474.0000	0.0203858
473.5000	0.0204549
473.0000	0.0205461
472.5000	0.0206327
472.0000	0.0207419
471.5000	0.0208085
471.0000	0.0209345
470.5000	0.0210317
470.0000	0.021173
469.5000	0.0212676
469.0000	0.0213853
468.5000	0.0214786
468.0000	0.0216207
467.5000	0.0217291
467.0000	0.0218873
466.5000	0.02201
466.0000	0.0221693
465.5000	0.0222814
465.0000	0.0224815
464.5000	0.0225926
464.0000	0.0228158
463.5000	0.0229258
463.0000	0.0231396
462.5000	0.0232804
462.0000	0.0235107
461.5000	0.0236802
461.0000	0.0239361
460.5000	0.024116
460.0000	0.0243698
459.5000	0.0245742
459.0000	0.024865
458.5000	0.02505
458.0000	0.025359
457.5000	0.0255657
457.0000	0.0259163
456.5000	0.026122
456.0000	0.0264705
455.5000	0.026733
455.0000	0.027124
454.5000	0.0273978
454.0000	0.0278343
453.5000	0.0281214
453.0000	0.0285813
452.5000	0.0289104
452.0000	0.0293847
451.5000	0.0297401
451.0000	0.0302826
450.5000	0.0306496
450.0000	0.0312087
449.5000	0.0316059
449.0000	0.0322269
448.5000	0.0326629
448.0000	0.0333649
447.5000	0.033819
447.0000	0.0345592
446.5000	0.035091
446.0000	0.0358949
445.5000	0.0364269
445.0000	0.0372872
444.5000	0.037897
444.0000	0.0388288
443.5000	0.0394756
443.0000	0.0404616
442.5000	0.0411465
442.0000	0.0422258
441.5000	0.0429679
441.0000	0.0441257
440.5000	0.0449373
440.0000	0.0461679
439.5000	0.0470055
439.0000	0.0483158
438.5000	0.0492027
438.0000	0.050577
437.5000	0.0515303
437.0000	0.0529889
436.5000	0.0540026
436.0000	0.0555262
435.5000	0.0565775
435.0000	0.0581992
434.5000	0.0592989
434.0000	0.0609609
433.5000	0.0621491
433.0000	0.0639035
432.5000	0.0651415
432.0000	0.0670326
431.5000	0.068313
431.0000	0.070266
430.5000	0.0716016
430.0000	0.0736313
429.5000	0.0750197
429.0000	0.077114
428.5000	0.0785371
428.0000	0.0807078
427.5000	0.0821823
427.0000	0.0843884
426.5000	0.0858953
426.0000	0.0881296
425.5000	0.0896489
425.0000	0.0919382
424.5000	0.093495
424.0000	0.095808
423.5000	0.0973385
423.0000	0.0996991
422.5000	0.101257
422.0000	0.103585
421.5000	0.105118
421.0000	0.107436
420.5000	0.10899
420.0000	0.111284
419.5000	0.11279
419.0000	0.11503
418.5000	0.116516
418.0000	0.118677
417.5000	0.120134
417.0000	0.122248
416.5000	0.123658
416.0000	0.125737
415.5000	0.127081
415.0000	0.129039
414.5000	0.130314
414.0000	0.132217
413.5000	0.133448
413.0000	0.135224
412.5000	0.136384
412.0000	0.138048
411.5000	0.139118
411.0000	0.140635
410.5000	0.141642
410.0000	0.143035
409.5000	0.14393
409.0000	0.145246
408.5000	0.146112
408.0000	0.147298
407.5000	0.148082
407.0000	0.149144
406.5000	0.149818
406.0000	0.15079
405.5000	0.151363
405.0000	0.152206
404.5000	0.152749
404.0000	0.153485
403.5000	0.153935
403.0000	0.154562
402.5000	0.15493
402.0000	0.155383
401.5000	0.155599
401.0000	0.155872
400.5000	0.156106
400.0000	0.156404
399.5000	0.156549
399.0000	0.156739
398.5000	0.15684
398.0000	0.156926
397.5000	0.156959
397.0000	0.15696
396.5000	0.156952
396.0000	0.156916
395.5000	0.156906
395.0000	0.156914
394.5000	0.156884
394.0000	0.156675
393.5000	0.156537
393.0000	0.156262
392.5000	0.156074
392.0000	0.15578
391.5000	0.155588
391.0000	0.155258
390.5000	0.155019
390.0000	0.15464
389.5000	0.154311
389.0000	0.153841
388.5000	0.15352
388.0000	0.153061
387.5000	0.152702
387.0000	0.152196
386.5000	0.151883
386.0000	0.151355
385.5000	0.150981
385.0000	0.15036
384.5000	0.150007
384.0000	0.149412
383.5000	0.149023
383.0000	0.148435
382.5000	0.148021
382.0000	0.147457
381.5000	0.147053
381.0000	0.146449
380.5000	0.146015
380.0000	0.14534
379.5000	0.144883
379.0000	0.144218
378.5000	0.143788
378.0000	0.143053
377.5000	0.142584
377.0000	0.141895
376.5000	0.141392
376.0000	0.140704
375.5000	0.140207
375.0000	0.139459
374.5000	0.138926
374.0000	0.138196
373.5000	0.137693
373.0000	0.136921
372.5000	0.136414
372.0000	0.135595
371.5000	0.135073
371.0000	0.134232
370.5000	0.133665
370.0000	0.132588
369.5000	0.131963
369.0000	0.131083
368.5000	0.130504
368.0000	0.129603
367.5000	0.129031
367.0000	0.12811
366.5000	0.12751
366.0000	0.126604
365.5000	0.125985
365.0000	0.125078
364.5000	0.124489
364.0000	0.123499
363.5000	0.122848
363.0000	0.121911
362.5000	0.121297
362.0000	0.120323
361.5000	0.119645
361.0000	0.118656
360.5000	0.118005
360.0000	0.117044
359.5000	0.116415
359.0000	0.1154
358.5000	0.114715
358.0000	0.113709
357.5000	0.113039
357.0000	0.11205
356.5000	0.111387
356.0000	0.110405
355.5000	0.109778
355.0000	0.108851
354.5000	0.108245
354.0000	0.10727
353.5000	0.106631
353.0000	0.105705
352.5000	0.105178
352.0000	0.104307
351.5000	0.103779
351.0000	0.102932
350.5000	0.102388
350.0000	0.10148
349.5000	0.100941
349.0000	0.100046
348.5000	0.0994852
348.0000	0.0986529
347.5000	0.098123
347.0000	0.0973942
346.5000	0.096855
346.0000	0.0960227
345.5000	0.0955013
345.0000	0.0947028
344.5000	0.0941685
344.0000	0.0934563
343.5000	0.0930144
343.0000	0.0923272
342.5000	0.0919671
342.0000	0.0912814
341.5000	0.0908386
341.0000	0.090188
340.5000	0.0897021
340.0000	0.0887087
339.5000	0.0883565
339.0000	0.0876505
338.5000	0.0872899
338.0000	0.0867461
337.5000	0.0863965
337.0000	0.0857822
336.5000	0.0854115
336.0000	0.0848147
335.5000	0.0844376
335.0000	0.0838925
334.5000	0.0835625
334.0000	0.0830485
333.5000	0.0827331
333.0000	0.0821961
332.5000	0.081934
332.0000	0.0814491
331.5000	0.0811228
331.0000	0.0806725
330.5000	0.0803986
330.0000	0.0799035
329.5000	0.0796615
329.0000	0.0792176
328.5000	0.0789045
328.0000	0.0785014
327.5000	0.0781623
327.0000	0.0776711
326.5000	0.077365
326.0000	0.0768724
325.5000	0.0765884
325.0000	0.0760376
324.5000	0.0756733
324.0000	0.0752191
323.5000	0.0749311
323.0000	0.0744475
322.5000	0.0741031
322.0000	0.0736101
321.5000	0.0732795
321.0000	0.0727796
320.5000	0.0723477
320.0000	0.0717888
319.5000	0.0714383
319.0000	0.0710205
318.5000	0.0706146
318.0000	0.0700429
317.5000	0.0696343
317.0000	0.0690297
316.5000	0.0686361
316.0000	0.068024
315.5000	0.067655
315.0000	0.0670308
314.5000	0.0667239
314.0000	0.0661786
313.5000	0.0657699
313.0000	0.0652086
312.5000	0.0647124
312.0000	0.0642918
311.5000	0.0639471
311.0000	0.063348
310.5000	0.0629933
310.0000	0.0624611
309.5000	0.0620742
309.0000	0.0615421
308.5000	0.0611493
308.0000	0.0607234
307.5000	0.0603783
307.0000	0.0600818
306.5000	0.0598912
306.0000	0.0594402
305.5000	0.0591116
305.0000	0.0588247
304.5000	0.0585454
304.0000	0.0581078
303.5000	0.0580443
303.0000	0.0577465
302.5000	0.057454
302.0000	0.0569451
301.5000	0.0568168
301.0000	0.0564528
300.5000	0.0563121
300.0000	0.0562033
299.5000	0.0561268
299.0000	0.0560863
298.5000	0.0558506
298.0000	0.0558535
297.5000	0.0559479
297.0000	0.0556867
296.5000	0.0562536
296.0000	0.0564907
295.5000	0.0564813
295.0000	0.0561709
294.5000	0.0565429
294.0000	0.0564306
293.5000	0.0574321
293.0000	0.0590347
292.5000	0.0583804
292.0000	0.0586703
291.5000	0.0572714
291.0000	0.0564371
290.5000	0.0559919
290.0000	0.0560119
289.5000	0.0560547
289.0000	0.0563624
288.5000	0.056508
288.0000	0.0565452
287.5000	0.0550316
287.0000	0.0512807
286.5000	0.0508058
286.0000	0.051579
285.5000	0.051165
285.0000	0.0522803
284.5000	0.0517326
284.0000	0.0545848
283.5000	0.0519719
283.0000	0.050368
282.5000	0.0504298
282.0000	0.0505629
281.5000	0.0497103
281.0000	0.0519644
280.5000	0.0521899
280.0000	0.0499494
279.5000	0.0481885
279.0000	0.047166
278.5000	0.0500402
278.0000	0.0485062
277.5000	0.0474131
277.0000	0.0449241
276.5000	0.0437959
276.0000	0.0387812
275.5000	0.0380978
275.0000	0.0388047
274.5000	0.0401328
274.0000	0.0408684
273.5000	0.0395813
273.0000	0.0401758
272.5000	0.038892
272.0000	0.0373969
271.5000	0.0395591
271.0000	0.0360397
270.5000	0.0372438
270.0000	0.0408173
269.5000	0.0425204
269.0000	0.039762
268.5000	0.0359091
268.0000	0.0367615
267.5000	0.0336779
267.0000	0.035606
266.5000	0.0360371
266.0000	0.0336897
265.5000	0.0354109
265.0000	0.0344887
264.5000	0.0373739
264.0000	0.0367733
263.5000	0.0374315
263.0000	0.0338607
262.5000	0.0345399
262.0000	0.0363352
261.5000	0.0339425
261.0000	0.0346921
260.5000	0.036328
260.0000	0.0352622
259.5000	0.0387385
259.0000	0.0351924
258.5000	0.0373011
258.0000	0.0357654
257.5000	0.0366046
257.0000	0.0353987
256.5000	0.0392015
256.0000	0.0406871
255.5000	0.041055
255.0000	0.041784
254.5000	0.0379054
254.0000	0.0365224
253.5000	0.0388087
253.0000	0.037143
252.5000	0.0395927
252.0000	0.0391395
251.5000	0.0428852
251.0000	0.0405057
250.5000	0.0424797
250.0000	0.0397304
249.5000	0.0368452
249.0000	0.0359487
248.5000	0.0347039
248.0000	0.0364706
247.5000	0.0373176
247.0000	0.0342617
246.5000	0.0353048
246.0000	0.034271
245.5000	0.031467
245.0000	0.029658
244.5000	0.0286364
244.0000	0.0296141
243.5000	0.0325281
243.0000	0.0313852
242.5000	0.0318246
242.0000	0.0336268
241.5000	0.0322514
241.0000	0.0368213
240.5000	0.0369191
240.0000	0.0385361
239.5000	0.036461
239.0000	0.0357086
238.5000	0.0364386
238.0000	0.0403008
237.5000	0.0377607
237.0000	0.0388717
236.5000	0.0432331
236.0000	0.040884
235.5000	0.0405242
235.0000	0.0415943
234.5000	0.0397843
234.0000	0.0394732
233.5000	0.0365131
233.0000	0.0416253
232.5000	0.0408152
232.0000	0.0375113
231.5000	0.0360574
231.0000	0.0372613
230.5000	0.0353997
230.0000	0.032433
229.5000	0.0331337
229.0000	0.0360049
228.5000	0.0392752
228.0000	0.0344
227.5000	0.038196
227.0000	0.0390597
226.5000	0.0376769
226.0000	0.040393
225.5000	0.0430421
225.0000	0.0460497
224.5000	0.0460137
224.0000	0.0473613
223.5000	0.0468785
223.0000	0.0423477
222.5000	0.0392555
222.0000	0.0376137
221.5000	0.039779
221.0000	0.037386
220.5000	0.0419233
220.0000	0.0442497
219.5000	0.0464971
219.0000	0.0462134
218.5000	0.042804
218.0000	0.041398
217.5000	0.0426882
217.0000	0.0437634
216.5000	0.0480555
216.0000	0.0493625
215.5000	0.0497932
215.0000	0.0532436
214.5000	0.0534366
214.0000	0.0512486
213.5000	0.0482219
213.0000	0.0447014
212.5000	0.0479938
212.0000	0.0470742
211.5000	0.047692
211.0000	0.0480178
210.5000	0.0501182
210.0000	0.0499436
209.5000	0.0499931
209.0000	0.051736
208.5000	0.0476989
208.0000	0.0466853
207.5000	0.0450385
207.0000	0.044713
206.5000	0.0454037
206.0000	0.0453054
205.5000	0.0502413
205.0000	0.0513528
204.5000	0.0473094
204.0000	0.0447183
203.5000	0.0461362
203.0000	0.0388996
202.5000	0.0372525
202.0000	0.0400448
201.5000	0.039884
201.0000	0.0407834
200.5000	0.0432399
200.0000	0.0420311

##### Extended Information
[Comments]
Sample name	N2200
Comment	Tol
User
Division
Company	ICMAB

[Detailed Information]
Creation date	21/10/25 1:45 PM

Data array type	Linear data array
Horizontal axis	Wavelength [nm]
Vertical axis	Abs
Start	1600 nm
End	200 nm
Data interval	0.5 nm
Data points	2801    

[Measurement Information]
Instrument name	V-780
Model name	V-780
Serial No.	D003961802

Accessory	FLH-741
Accessory S/N	B057261128
  Mask	
  Ref. beam	

Measurement date	21/10/25 1:45 PM

Photometric mode	Abs
Measurement range	1600 - 200 nm
Data interval	0.5 nm
UV/Vis bandwidth	1.0 nm
NIR bandwidth	2.0 nm
UV/Vis response	0.96 sec
NIR response	0.96 sec
Scan mode	Continuous
Scan speed	400 nm/min
Change source at	340 nm
Change grating at	850 nm
Light source	D2/WI
Filter exchange	Step
Correction	Baseline
No. of cycles	1

