TITLE	N2200
DATA TYPE	ULTRAVIOLET SPECTRUM
ORIGIN	JASCO
OWNER	
DATE	21/10/25
TIME	14:57:39
SPECTROMETER/DATA SYSTEM	
LOCALE	1033
RESOLUTION	
DELTAX	-0.5
XUNITS	NANOMETERS
YUNITS	ABSORBANCE
FIRSTX	 1600.0000
LASTX	  200.0000
NPOINTS	    2801
FIRSTY	     0.00138
MAXY	     0.15005
MINY	     0.00137
XYDATA
1600.0000	0.00137708
1599.5000	0.00137842
1599.0000	0.00137688
1598.5000	0.00137675
1598.0000	0.00137758
1597.5000	0.001379
1597.0000	0.00137576
1596.5000	0.00137435
1596.0000	0.00137637
1595.5000	0.00137765
1595.0000	0.00138361
1594.5000	0.00138529
1594.0000	0.00138868
1593.5000	0.00139053
1593.0000	0.00139424
1592.5000	0.0013975
1592.0000	0.00140237
1591.5000	0.00140363
1591.0000	0.00140971
1590.5000	0.00141162
1590.0000	0.00141579
1589.5000	0.00141547
1589.0000	0.00141595
1588.5000	0.00141502
1588.0000	0.00141555
1587.5000	0.0014147
1587.0000	0.00141743
1586.5000	0.00141768
1586.0000	0.00141579
1585.5000	0.00141598
1585.0000	0.00141846
1584.5000	0.00141976
1584.0000	0.00142256
1583.5000	0.00142465
1583.0000	0.00142913
1582.5000	0.00143302
1582.0000	0.00143427
1581.5000	0.00143776
1581.0000	0.00144122
1580.5000	0.0014422
1580.0000	0.00144107
1579.5000	0.00144476
1579.0000	0.00144638
1578.5000	0.00144611
1578.0000	0.0014479
1577.5000	0.00145012
1577.0000	0.00145057
1576.5000	0.00144957
1576.0000	0.00145206
1575.5000	0.00145415
1575.0000	0.00145474
1574.5000	0.00145736
1574.0000	0.00145999
1573.5000	0.00146325
1573.0000	0.00146422
1572.5000	0.00146425
1572.0000	0.00146668
1571.5000	0.00146807
1571.0000	0.00146702
1570.5000	0.00147229
1570.0000	0.00147317
1569.5000	0.00147279
1569.0000	0.00147599
1568.5000	0.00147659
1568.0000	0.00147629
1567.5000	0.00147512
1567.0000	0.00147671
1566.5000	0.00147816
1566.0000	0.00148126
1565.5000	0.00148266
1565.0000	0.00148207
1564.5000	0.00148433
1564.0000	0.00148396
1563.5000	0.00148662
1563.0000	0.00148901
1562.5000	0.00148855
1562.0000	0.00149128
1561.5000	0.00149186
1561.0000	0.00149321
1560.5000	0.00149488
1560.0000	0.00149452
1559.5000	0.00149693
1559.0000	0.00149828
1558.5000	0.0015004
1558.0000	0.00150253
1557.5000	0.00150368
1557.0000	0.00150268
1556.5000	0.00150122
1556.0000	0.00150247
1555.5000	0.00150433
1555.0000	0.00150876
1554.5000	0.00150803
1554.0000	0.00150909
1553.5000	0.001512
1553.0000	0.00151372
1552.5000	0.00151491
1552.0000	0.00151869
1551.5000	0.00152135
1551.0000	0.001522
1550.5000	0.00152202
1550.0000	0.0015262
1549.5000	0.00153024
1549.0000	0.00153086
1548.5000	0.00153707
1548.0000	0.0015431
1547.5000	0.0015459
1547.0000	0.00154673
1546.5000	0.0015488
1546.0000	0.00155061
1545.5000	0.00155224
1545.0000	0.00155261
1544.5000	0.00155409
1544.0000	0.00156012
1543.5000	0.0015608
1543.0000	0.00155974
1542.5000	0.00156105
1542.0000	0.0015577
1541.5000	0.00155648
1541.0000	0.00155901
1540.5000	0.00156025
1540.0000	0.00156148
1539.5000	0.00156326
1539.0000	0.00156228
1538.5000	0.00156327
1538.0000	0.00156462
1537.5000	0.00156186
1537.0000	0.00156823
1536.5000	0.0015699
1536.0000	0.00157325
1535.5000	0.00157656
1535.0000	0.00158315
1534.5000	0.0015862
1534.0000	0.00158676
1533.5000	0.0015859
1533.0000	0.00158805
1532.5000	0.00159
1532.0000	0.00159472
1531.5000	0.00159619
1531.0000	0.00159796
1530.5000	0.00159628
1530.0000	0.00159516
1529.5000	0.00159557
1529.0000	0.00160109
1528.5000	0.00160117
1528.0000	0.00160375
1527.5000	0.00160961
1527.0000	0.00161664
1526.5000	0.00161484
1526.0000	0.0016173
1525.5000	0.00161797
1525.0000	0.00162077
1524.5000	0.00162197
1524.0000	0.00162597
1523.5000	0.00162922
1523.0000	0.00162982
1522.5000	0.00162701
1522.0000	0.00162758
1521.5000	0.00162846
1521.0000	0.00162596
1520.5000	0.00162598
1520.0000	0.00162767
1519.5000	0.00162864
1519.0000	0.00163326
1518.5000	0.00163761
1518.0000	0.00164016
1517.5000	0.00164219
1517.0000	0.00164296
1516.5000	0.00164369
1516.0000	0.00164746
1515.5000	0.00164975
1515.0000	0.00164935
1514.5000	0.00165059
1514.0000	0.00165555
1513.5000	0.00166009
1513.0000	0.00166293
1512.5000	0.00166148
1512.0000	0.00166433
1511.5000	0.00166709
1511.0000	0.00167029
1510.5000	0.00167527
1510.0000	0.00168004
1509.5000	0.0016799
1509.0000	0.00168231
1508.5000	0.00168489
1508.0000	0.00168874
1507.5000	0.00168689
1507.0000	0.00168164
1506.5000	0.00168173
1506.0000	0.00168436
1505.5000	0.00168388
1505.0000	0.00168221
1504.5000	0.00168251
1504.0000	0.00167908
1503.5000	0.00167756
1503.0000	0.00168048
1502.5000	0.00168393
1502.0000	0.00168866
1501.5000	0.00169054
1501.0000	0.00169716
1500.5000	0.00170159
1500.0000	0.00170448
1499.5000	0.00170397
1499.0000	0.00170597
1498.5000	0.00170777
1498.0000	0.00171272
1497.5000	0.00171463
1497.0000	0.00171655
1496.5000	0.00171747
1496.0000	0.00171795
1495.5000	0.00171619
1495.0000	0.00171965
1494.5000	0.00171904
1494.0000	0.0017241
1493.5000	0.00172695
1493.0000	0.0017306
1492.5000	0.0017329
1492.0000	0.00173393
1491.5000	0.00173273
1491.0000	0.00173429
1490.5000	0.00173501
1490.0000	0.0017349
1489.5000	0.00173265
1489.0000	0.00173755
1488.5000	0.00173808
1488.0000	0.00174054
1487.5000	0.00174087
1487.0000	0.00174532
1486.5000	0.00174651
1486.0000	0.00174663
1485.5000	0.00174946
1485.0000	0.00175277
1484.5000	0.00175313
1484.0000	0.00175276
1483.5000	0.0017557
1483.0000	0.00175585
1482.5000	0.0017545
1482.0000	0.00175528
1481.5000	0.00175579
1481.0000	0.00175264
1480.5000	0.00175059
1480.0000	0.00175061
1479.5000	0.00175602
1479.0000	0.0017552
1478.5000	0.00175904
1478.0000	0.00176885
1477.5000	0.00177152
1477.0000	0.00177443
1476.5000	0.00177733
1476.0000	0.00177828
1475.5000	0.00177639
1475.0000	0.00177485
1474.5000	0.00177673
1474.0000	0.00178166
1473.5000	0.00178303
1473.0000	0.00178361
1472.5000	0.00178648
1472.0000	0.00179228
1471.5000	0.00179173
1471.0000	0.00179665
1470.5000	0.00180024
1470.0000	0.00180435
1469.5000	0.0018096
1469.0000	0.00181628
1468.5000	0.00182321
1468.0000	0.00183032
1467.5000	0.00183082
1467.0000	0.00183242
1466.5000	0.00183358
1466.0000	0.00183742
1465.5000	0.00183493
1465.0000	0.00183854
1464.5000	0.0018415
1464.0000	0.00184023
1463.5000	0.00184298
1463.0000	0.00184313
1462.5000	0.00184718
1462.0000	0.00184547
1461.5000	0.00184481
1461.0000	0.00184701
1460.5000	0.00184959
1460.0000	0.00184971
1459.5000	0.00185011
1459.0000	0.00185044
1458.5000	0.00184872
1458.0000	0.00185023
1457.5000	0.00185164
1457.0000	0.00185559
1456.5000	0.00185673
1456.0000	0.00185687
1455.5000	0.00185985
1455.0000	0.00185995
1454.5000	0.00185751
1454.0000	0.00186056
1453.5000	0.00186351
1453.0000	0.00187124
1452.5000	0.00187391
1452.0000	0.00188187
1451.5000	0.00188394
1451.0000	0.00188268
1450.5000	0.00188018
1450.0000	0.00188149
1449.5000	0.00188322
1449.0000	0.00188357
1448.5000	0.00189241
1448.0000	0.00190652
1447.5000	0.00190787
1447.0000	0.00191192
1446.5000	0.00190986
1446.0000	0.00191072
1445.5000	0.00190872
1445.0000	0.00191174
1444.5000	0.00191812
1444.0000	0.00192314
1443.5000	0.00192485
1443.0000	0.0019285
1442.5000	0.00193173
1442.0000	0.00192556
1441.5000	0.00192205
1441.0000	0.00192488
1440.5000	0.00192256
1440.0000	0.00192911
1439.5000	0.00193194
1439.0000	0.00193659
1438.5000	0.00193792
1438.0000	0.00193782
1437.5000	0.00194093
1437.0000	0.00194881
1436.5000	0.00195208
1436.0000	0.0019576
1435.5000	0.00195637
1435.0000	0.00195961
1434.5000	0.00196059
1434.0000	0.00196712
1433.5000	0.00196831
1433.0000	0.00196916
1432.5000	0.00196807
1432.0000	0.0019698
1431.5000	0.00197142
1431.0000	0.00197259
1430.5000	0.0019735
1430.0000	0.00197426
1429.5000	0.00197685
1429.0000	0.00198001
1428.5000	0.00197759
1428.0000	0.00197589
1427.5000	0.00197026
1427.0000	0.00197152
1426.5000	0.00197246
1426.0000	0.00198211
1425.5000	0.00198714
1425.0000	0.00198991
1424.5000	0.00198916
1424.0000	0.00198881
1423.5000	0.0019859
1423.0000	0.00198525
1422.5000	0.00198505
1422.0000	0.00199157
1421.5000	0.00199719
1421.0000	0.00200529
1420.5000	0.00200926
1420.0000	0.00201477
1419.5000	0.00201304
1419.0000	0.0020043
1418.5000	0.00200114
1418.0000	0.00200594
1417.5000	0.00200632
1417.0000	0.00201972
1416.5000	0.00202599
1416.0000	0.0020349
1415.5000	0.00203467
1415.0000	0.00203351
1414.5000	0.00203337
1414.0000	0.00202894
1413.5000	0.00202522
1413.0000	0.00201964
1412.5000	0.00202764
1412.0000	0.00203683
1411.5000	0.00204301
1411.0000	0.00205144
1410.5000	0.00204994
1410.0000	0.0020536
1409.5000	0.00205287
1409.0000	0.0020529
1408.5000	0.00205195
1408.0000	0.0020578
1407.5000	0.00206663
1407.0000	0.00209489
1406.5000	0.00210803
1406.0000	0.00210962
1405.5000	0.00210763
1405.0000	0.00209415
1404.5000	0.00208848
1404.0000	0.00208412
1403.5000	0.00207889
1403.0000	0.00208894
1402.5000	0.00210039
1402.0000	0.00211666
1401.5000	0.00212588
1401.0000	0.0021206
1400.5000	0.00211107
1400.0000	0.00210257
1399.5000	0.0020923
1399.0000	0.00209439
1398.5000	0.00210499
1398.0000	0.0021162
1397.5000	0.00213691
1397.0000	0.00215489
1396.5000	0.00215123
1396.0000	0.00214328
1395.5000	0.00212833
1395.0000	0.0021296
1394.5000	0.00214002
1394.0000	0.00215334
1393.5000	0.00217242
1393.0000	0.00218571
1392.5000	0.00218468
1392.0000	0.0021796
1391.5000	0.00216649
1391.0000	0.00214752
1390.5000	0.00214795
1390.0000	0.00215835
1389.5000	0.00217182
1389.0000	0.00217387
1388.5000	0.00216357
1388.0000	0.00215439
1387.5000	0.0021514
1387.0000	0.00214107
1386.5000	0.00213699
1386.0000	0.0021348
1385.5000	0.00214057
1385.0000	0.00216319
1384.5000	0.00216799
1384.0000	0.00217149
1383.5000	0.00216623
1383.0000	0.00217562
1382.5000	0.00219058
1382.0000	0.00220757
1381.5000	0.00221926
1381.0000	0.00221459
1380.5000	0.00222203
1380.0000	0.00222827
1379.5000	0.00223623
1379.0000	0.00223504
1378.5000	0.00223296
1378.0000	0.00223547
1377.5000	0.00222965
1377.0000	0.00222492
1376.5000	0.00221514
1376.0000	0.00220154
1375.5000	0.0021898
1375.0000	0.00216896
1374.5000	0.00216349
1374.0000	0.00215066
1373.5000	0.0021496
1373.0000	0.00215646
1372.5000	0.00215675
1372.0000	0.00215467
1371.5000	0.00213999
1371.0000	0.00213294
1370.5000	0.00213064
1370.0000	0.00213635
1369.5000	0.00214706
1369.0000	0.00215687
1368.5000	0.00215447
1368.0000	0.00214535
1367.5000	0.00214915
1367.0000	0.00215695
1366.5000	0.00216197
1366.0000	0.00215597
1365.5000	0.00213933
1365.0000	0.00213611
1364.5000	0.00213876
1364.0000	0.0021382
1363.5000	0.0021396
1363.0000	0.0021461
1362.5000	0.00215856
1362.0000	0.00218253
1361.5000	0.00220029
1361.0000	0.00222538
1360.5000	0.0022242
1360.0000	0.00222137
1359.5000	0.00223653
1359.0000	0.00227324
1358.5000	0.00229451
1358.0000	0.0023059
1357.5000	0.00230614
1357.0000	0.00230955
1356.5000	0.00231043
1356.0000	0.00231745
1355.5000	0.00231501
1355.0000	0.00231904
1354.5000	0.00231772
1354.0000	0.00232998
1353.5000	0.00233306
1353.0000	0.00233567
1352.5000	0.00233808
1352.0000	0.00233924
1351.5000	0.00234066
1351.0000	0.00233611
1350.5000	0.00233303
1350.0000	0.0023344
1349.5000	0.00233352
1349.0000	0.00233002
1348.5000	0.00232814
1348.0000	0.00232986
1347.5000	0.00232827
1347.0000	0.00232272
1346.5000	0.00232504
1346.0000	0.00233217
1345.5000	0.0023366
1345.0000	0.00233753
1344.5000	0.00233325
1344.0000	0.00233587
1343.5000	0.00233547
1343.0000	0.00233909
1342.5000	0.00234237
1342.0000	0.00234575
1341.5000	0.00234533
1341.0000	0.00234924
1340.5000	0.00235249
1340.0000	0.00235387
1339.5000	0.00235454
1339.0000	0.00235797
1338.5000	0.00236111
1338.0000	0.00236722
1337.5000	0.00236958
1337.0000	0.00237333
1336.5000	0.00237185
1336.0000	0.00237291
1335.5000	0.00237377
1335.0000	0.00237734
1334.5000	0.00237626
1334.0000	0.00237688
1333.5000	0.00237877
1333.0000	0.00238153
1332.5000	0.00238306
1332.0000	0.0023852
1331.5000	0.00238779
1331.0000	0.00239059
1330.5000	0.00239265
1330.0000	0.00239855
1329.5000	0.00240114
1329.0000	0.00240335
1328.5000	0.00240618
1328.0000	0.00241265
1327.5000	0.00241746
1327.0000	0.00242098
1326.5000	0.00242139
1326.0000	0.00242558
1325.5000	0.0024278
1325.0000	0.00243043
1324.5000	0.00243272
1324.0000	0.00243333
1323.5000	0.00243534
1323.0000	0.00244115
1322.5000	0.00244568
1322.0000	0.00244963
1321.5000	0.00245128
1321.0000	0.00245375
1320.5000	0.00245683
1320.0000	0.00246109
1319.5000	0.00246191
1319.0000	0.00246571
1318.5000	0.00246707
1318.0000	0.00247142
1317.5000	0.00247016
1317.0000	0.00247098
1316.5000	0.00247261
1316.0000	0.00247224
1315.5000	0.00247
1315.0000	0.00247114
1314.5000	0.0024731
1314.0000	0.00247692
1313.5000	0.0024807
1313.0000	0.0024853
1312.5000	0.00248604
1312.0000	0.00248895
1311.5000	0.00249003
1311.0000	0.00249772
1310.5000	0.0025023
1310.0000	0.00250886
1309.5000	0.00251299
1309.0000	0.00252317
1308.5000	0.0025256
1308.0000	0.00252632
1307.5000	0.00252788
1307.0000	0.00253079
1306.5000	0.00253335
1306.0000	0.00253756
1305.5000	0.00254103
1305.0000	0.00254733
1304.5000	0.00254854
1304.0000	0.00254874
1303.5000	0.00255115
1303.0000	0.0025523
1302.5000	0.00255063
1302.0000	0.00255446
1301.5000	0.00255766
1301.0000	0.00256301
1300.5000	0.00256407
1300.0000	0.00256438
1299.5000	0.00256636
1299.0000	0.00256873
1298.5000	0.00256755
1298.0000	0.00257108
1297.5000	0.00257247
1297.0000	0.00257738
1296.5000	0.00258009
1296.0000	0.00258763
1295.5000	0.00258921
1295.0000	0.00259303
1294.5000	0.00259433
1294.0000	0.0025989
1293.5000	0.00260082
1293.0000	0.00260396
1292.5000	0.00260793
1292.0000	0.00261644
1291.5000	0.00262029
1291.0000	0.00262211
1290.5000	0.00262388
1290.0000	0.00262713
1289.5000	0.00262702
1289.0000	0.00262812
1288.5000	0.00263035
1288.0000	0.0026353
1287.5000	0.00263701
1287.0000	0.0026396
1286.5000	0.0026423
1286.0000	0.00264297
1285.5000	0.00264243
1285.0000	0.00264425
1284.5000	0.0026486
1284.0000	0.0026543
1283.5000	0.0026579
1283.0000	0.00266548
1282.5000	0.00267036
1282.0000	0.00267348
1281.5000	0.00267453
1281.0000	0.00268093
1280.5000	0.00268621
1280.0000	0.00268981
1279.5000	0.00269374
1279.0000	0.00270002
1278.5000	0.00270378
1278.0000	0.00270603
1277.5000	0.00270741
1277.0000	0.0027101
1276.5000	0.00271114
1276.0000	0.00271595
1275.5000	0.00271862
1275.0000	0.00272631
1274.5000	0.00272682
1274.0000	0.00273151
1273.5000	0.00273554
1273.0000	0.00274315
1272.5000	0.00274817
1272.0000	0.00275051
1271.5000	0.00275245
1271.0000	0.00275542
1270.5000	0.00275949
1270.0000	0.00276252
1269.5000	0.00276371
1269.0000	0.00276941
1268.5000	0.00277037
1268.0000	0.00277692
1267.5000	0.00277893
1267.0000	0.00278167
1266.5000	0.00278049
1266.0000	0.00278009
1265.5000	0.00278508
1265.0000	0.00279198
1264.5000	0.00279583
1264.0000	0.00279897
1263.5000	0.00280165
1263.0000	0.00280526
1262.5000	0.00280512
1262.0000	0.00280586
1261.5000	0.00280741
1261.0000	0.00281238
1260.5000	0.00281501
1260.0000	0.00282299
1259.5000	0.00282552
1259.0000	0.0028283
1258.5000	0.00283044
1258.0000	0.00283297
1257.5000	0.00283476
1257.0000	0.00283956
1256.5000	0.00284341
1256.0000	0.00284912
1255.5000	0.00285234
1255.0000	0.00285285
1254.5000	0.0028531
1254.0000	0.00285462
1253.5000	0.00285531
1253.0000	0.00285944
1252.5000	0.00286262
1252.0000	0.00286567
1251.5000	0.00286986
1251.0000	0.00287821
1250.5000	0.00288041
1250.0000	0.00288342
1249.5000	0.0028884
1249.0000	0.00289534
1248.5000	0.00290115
1248.0000	0.00290633
1247.5000	0.00291113
1247.0000	0.00291749
1246.5000	0.00292385
1246.0000	0.00292842
1245.5000	0.00293172
1245.0000	0.00293487
1244.5000	0.002937
1244.0000	0.00294246
1243.5000	0.00294586
1243.0000	0.00294944
1242.5000	0.00295345
1242.0000	0.00295762
1241.5000	0.00296342
1241.0000	0.00296908
1240.5000	0.00297257
1240.0000	0.00297346
1239.5000	0.00297487
1239.0000	0.00298128
1238.5000	0.00298606
1238.0000	0.00299303
1237.5000	0.00299637
1237.0000	0.00299933
1236.5000	0.00300323
1236.0000	0.00300781
1235.5000	0.00301199
1235.0000	0.00301363
1234.5000	0.00301899
1234.0000	0.00302821
1233.5000	0.00303351
1233.0000	0.00303865
1232.5000	0.00303966
1232.0000	0.00304225
1231.5000	0.00304626
1231.0000	0.00305222
1230.5000	0.00305702
1230.0000	0.00306169
1229.5000	0.00306656
1229.0000	0.00307233
1228.5000	0.00307723
1228.0000	0.00307827
1227.5000	0.00307587
1227.0000	0.00307768
1226.5000	0.00307974
1226.0000	0.00308878
1225.5000	0.00309117
1225.0000	0.00309369
1224.5000	0.00309239
1224.0000	0.00309484
1223.5000	0.00309819
1223.0000	0.00310268
1222.5000	0.0031047
1222.0000	0.00311048
1221.5000	0.00311318
1221.0000	0.0031194
1220.5000	0.00312301
1220.0000	0.00312894
1219.5000	0.00313055
1219.0000	0.00313376
1218.5000	0.00313868
1218.0000	0.00314658
1217.5000	0.00315128
1217.0000	0.00315576
1216.5000	0.00315974
1216.0000	0.003162
1215.5000	0.00316363
1215.0000	0.00317008
1214.5000	0.00317398
1214.0000	0.00318059
1213.5000	0.00318554
1213.0000	0.00319161
1212.5000	0.00319665
1212.0000	0.00319959
1211.5000	0.00320358
1211.0000	0.00320743
1210.5000	0.00321153
1210.0000	0.00321688
1209.5000	0.00322305
1209.0000	0.0032298
1208.5000	0.00323218
1208.0000	0.00323142
1207.5000	0.00323416
1207.0000	0.00323898
1206.5000	0.00324178
1206.0000	0.00324702
1205.5000	0.00325155
1205.0000	0.0032555
1204.5000	0.00326158
1204.0000	0.00326201
1203.5000	0.00326102
1203.0000	0.00326601
1202.5000	0.00326899
1202.0000	0.00327845
1201.5000	0.00328233
1201.0000	0.00328964
1200.5000	0.00329161
1200.0000	0.00329493
1199.5000	0.00329839
1199.0000	0.0033019
1198.5000	0.00330778
1198.0000	0.00331276
1197.5000	0.00331511
1197.0000	0.00331893
1196.5000	0.00332072
1196.0000	0.00332354
1195.5000	0.00332611
1195.0000	0.00333167
1194.5000	0.00333818
1194.0000	0.00334017
1193.5000	0.00334302
1193.0000	0.00334641
1192.5000	0.0033504
1192.0000	0.00335704
1191.5000	0.00336059
1191.0000	0.00336486
1190.5000	0.00336943
1190.0000	0.00337524
1189.5000	0.00338062
1189.0000	0.00338586
1188.5000	0.0033898
1188.0000	0.00339145
1187.5000	0.00339998
1187.0000	0.00340594
1186.5000	0.00341057
1186.0000	0.00341304
1185.5000	0.00341643
1185.0000	0.00342325
1184.5000	0.00342695
1184.0000	0.00343094
1183.5000	0.00343655
1183.0000	0.00344143
1182.5000	0.00344584
1182.0000	0.00344844
1181.5000	0.00345113
1181.0000	0.00345756
1180.5000	0.00346261
1180.0000	0.00346739
1179.5000	0.00347447
1179.0000	0.00348197
1178.5000	0.00348569
1178.0000	0.0034899
1177.5000	0.00349618
1177.0000	0.00350043
1176.5000	0.00350267
1176.0000	0.00350831
1175.5000	0.00351371
1175.0000	0.00352124
1174.5000	0.00352537
1174.0000	0.00353298
1173.5000	0.00353862
1173.0000	0.00354161
1172.5000	0.00354803
1172.0000	0.00355675
1171.5000	0.00356631
1171.0000	0.00357225
1170.5000	0.0035772
1170.0000	0.0035852
1169.5000	0.00359031
1169.0000	0.0035978
1168.5000	0.0036049
1168.0000	0.00361104
1167.5000	0.00361555
1167.0000	0.00361983
1166.5000	0.00362571
1166.0000	0.00362856
1165.5000	0.00362905
1165.0000	0.00362844
1164.5000	0.00363492
1164.0000	0.003639
1163.5000	0.00364385
1163.0000	0.00364918
1162.5000	0.00365315
1162.0000	0.00365799
1161.5000	0.00365969
1161.0000	0.00366603
1160.5000	0.00367144
1160.0000	0.00367619
1159.5000	0.00367975
1159.0000	0.00368685
1158.5000	0.00369322
1158.0000	0.00369894
1157.5000	0.00370238
1157.0000	0.00370876
1156.5000	0.00371541
1156.0000	0.00371807
1155.5000	0.00372003
1155.0000	0.0037289
1154.5000	0.00373423
1154.0000	0.00374153
1153.5000	0.00374456
1153.0000	0.00374959
1152.5000	0.00375618
1152.0000	0.00376343
1151.5000	0.0037672
1151.0000	0.00377286
1150.5000	0.00377579
1150.0000	0.00378076
1149.5000	0.00378911
1149.0000	0.00379429
1148.5000	0.00379954
1148.0000	0.00380351
1147.5000	0.00380874
1147.0000	0.00381855
1146.5000	0.00382433
1146.0000	0.00382778
1145.5000	0.00383088
1145.0000	0.00383429
1144.5000	0.00383913
1144.0000	0.00384667
1143.5000	0.00385205
1143.0000	0.00385671
1142.5000	0.00386047
1142.0000	0.00386576
1141.5000	0.00387012
1141.0000	0.00387213
1140.5000	0.00387378
1140.0000	0.00387407
1139.5000	0.00387959
1139.0000	0.00388909
1138.5000	0.00389698
1138.0000	0.00390823
1137.5000	0.00391428
1137.0000	0.00392524
1136.5000	0.00393154
1136.0000	0.00393783
1135.5000	0.00394549
1135.0000	0.00395161
1134.5000	0.0039595
1134.0000	0.00397002
1133.5000	0.00398068
1133.0000	0.00398734
1132.5000	0.00399376
1132.0000	0.00400093
1131.5000	0.00400298
1131.0000	0.00400811
1130.5000	0.00401139
1130.0000	0.0040217
1129.5000	0.00403058
1129.0000	0.0040366
1128.5000	0.00404671
1128.0000	0.00405321
1127.5000	0.00405919
1127.0000	0.00406669
1126.5000	0.00407408
1126.0000	0.00408293
1125.5000	0.00408571
1125.0000	0.00409424
1124.5000	0.00409923
1124.0000	0.00410762
1123.5000	0.00411195
1123.0000	0.00411561
1122.5000	0.00412002
1122.0000	0.00412093
1121.5000	0.00412597
1121.0000	0.0041325
1120.5000	0.00413644
1120.0000	0.00414238
1119.5000	0.00414457
1119.0000	0.00415256
1118.5000	0.00415732
1118.0000	0.00416556
1117.5000	0.00416912
1117.0000	0.00417917
1116.5000	0.00418548
1116.0000	0.00419529
1115.5000	0.00420301
1115.0000	0.00421104
1114.5000	0.00421683
1114.0000	0.00422387
1113.5000	0.00423069
1113.0000	0.00423958
1112.5000	0.0042451
1112.0000	0.00425162
1111.5000	0.00425644
1111.0000	0.00426403
1110.5000	0.00426967
1110.0000	0.00427983
1109.5000	0.00428784
1109.0000	0.00429539
1108.5000	0.00430231
1108.0000	0.00431275
1107.5000	0.00432076
1107.0000	0.00432889
1106.5000	0.0043344
1106.0000	0.00434658
1105.5000	0.00435235
1105.0000	0.00436172
1104.5000	0.00436617
1104.0000	0.00437425
1103.5000	0.00437604
1103.0000	0.00438104
1102.5000	0.00438621
1102.0000	0.00439387
1101.5000	0.00439849
1101.0000	0.00440545
1100.5000	0.00441149
1100.0000	0.00442142
1099.5000	0.00442635
1099.0000	0.00443714
1098.5000	0.00444384
1098.0000	0.00445341
1097.5000	0.00445773
1097.0000	0.00447013
1096.5000	0.00447732
1096.0000	0.00448654
1095.5000	0.00449252
1095.0000	0.00450316
1094.5000	0.00450915
1094.0000	0.00451684
1093.5000	0.00452314
1093.0000	0.0045305
1092.5000	0.00453676
1092.0000	0.00454351
1091.5000	0.00454791
1091.0000	0.00455796
1090.5000	0.00456147
1090.0000	0.00456755
1089.5000	0.00457453
1089.0000	0.00458236
1088.5000	0.00458898
1088.0000	0.0045967
1087.5000	0.0046029
1087.0000	0.00461344
1086.5000	0.00461849
1086.0000	0.00462843
1085.5000	0.00463601
1085.0000	0.00464731
1084.5000	0.0046549
1084.0000	0.00466585
1083.5000	0.00467316
1083.0000	0.00468136
1082.5000	0.0046865
1082.0000	0.00469682
1081.5000	0.00470431
1081.0000	0.00471219
1080.5000	0.00471839
1080.0000	0.00472857
1079.5000	0.00473297
1079.0000	0.00474452
1078.5000	0.00474693
1078.0000	0.00475743
1077.5000	0.00476446
1077.0000	0.00477376
1076.5000	0.00478114
1076.0000	0.00479223
1075.5000	0.00479756
1075.0000	0.0048073
1074.5000	0.00481421
1074.0000	0.00482192
1073.5000	0.0048255
1073.0000	0.00483641
1072.5000	0.00484469
1072.0000	0.0048583
1071.5000	0.00486229
1071.0000	0.00487151
1070.5000	0.00487889
1070.0000	0.00488726
1069.5000	0.00489395
1069.0000	0.00490612
1068.5000	0.00491289
1068.0000	0.00492207
1067.5000	0.00492782
1067.0000	0.00493999
1066.5000	0.00494547
1066.0000	0.00495287
1065.5000	0.00495933
1065.0000	0.00497372
1064.5000	0.00498329
1064.0000	0.00499478
1063.5000	0.00500288
1063.0000	0.00501437
1062.5000	0.00502174
1062.0000	0.00503136
1061.5000	0.00504073
1061.0000	0.00505411
1060.5000	0.00506156
1060.0000	0.00507232
1059.5000	0.00507975
1059.0000	0.00508881
1058.5000	0.00509579
1058.0000	0.00510242
1057.5000	0.0051076
1057.0000	0.00511804
1056.5000	0.00512459
1056.0000	0.00513349
1055.5000	0.0051417
1055.0000	0.00515131
1054.5000	0.00515708
1054.0000	0.00516786
1053.5000	0.00517499
1053.0000	0.00518467
1052.5000	0.00519028
1052.0000	0.00519891
1051.5000	0.00520855
1051.0000	0.0052221
1050.5000	0.00522685
1050.0000	0.00523722
1049.5000	0.00524721
1049.0000	0.00525773
1048.5000	0.00526309
1048.0000	0.00527473
1047.5000	0.0052828
1047.0000	0.0052971
1046.5000	0.00530344
1046.0000	0.00531992
1045.5000	0.00532835
1045.0000	0.00533956
1044.5000	0.00534838
1044.0000	0.0053638
1043.5000	0.00536982
1043.0000	0.00538239
1042.5000	0.00539164
1042.0000	0.00540713
1041.5000	0.00541648
1041.0000	0.00542394
1040.5000	0.00542884
1040.0000	0.00544395
1039.5000	0.00544977
1039.0000	0.00546095
1038.5000	0.0054708
1038.0000	0.00547842
1037.5000	0.00548453
1037.0000	0.00549598
1036.5000	0.00550383
1036.0000	0.00551596
1035.5000	0.00552225
1035.0000	0.00553604
1034.5000	0.00554796
1034.0000	0.00556002
1033.5000	0.00556708
1033.0000	0.00558216
1032.5000	0.00558959
1032.0000	0.00560163
1031.5000	0.00560893
1031.0000	0.00562444
1030.5000	0.00563567
1030.0000	0.00565115
1029.5000	0.00565943
1029.0000	0.00567248
1028.5000	0.00567835
1028.0000	0.00569056
1027.5000	0.00570294
1027.0000	0.00571512
1026.5000	0.00572242
1026.0000	0.00573576
1025.5000	0.00574419
1025.0000	0.00576205
1024.5000	0.00576948
1024.0000	0.00577994
1023.5000	0.00578602
1023.0000	0.00579906
1022.5000	0.005808
1022.0000	0.00582551
1021.5000	0.00583703
1021.0000	0.00585189
1020.5000	0.0058633
1020.0000	0.00588032
1019.5000	0.00589073
1019.0000	0.00590494
1018.5000	0.00591097
1018.0000	0.00592525
1017.5000	0.00593797
1017.0000	0.00595387
1016.5000	0.00596232
1016.0000	0.00597459
1015.5000	0.00598394
1015.0000	0.00599502
1014.5000	0.00600372
1014.0000	0.00601704
1013.5000	0.00602393
1013.0000	0.00603403
1012.5000	0.00604434
1012.0000	0.00606184
1011.5000	0.00607173
1011.0000	0.00608535
1010.5000	0.00609609
1010.0000	0.00611912
1009.5000	0.00612833
1009.0000	0.00613984
1008.5000	0.0061541
1008.0000	0.00617084
1007.5000	0.00618189
1007.0000	0.00619691
1006.5000	0.00621254
1006.0000	0.00622772
1005.5000	0.00623594
1005.0000	0.00625377
1004.5000	0.00626434
1004.0000	0.00628004
1003.5000	0.00628846
1003.0000	0.00630676
1002.5000	0.00631979
1002.0000	0.00633314
1001.5000	0.00634384
1001.0000	0.00635831
1000.5000	0.00637247
1000.0000	0.00638399
999.5000	0.00639921
999.0000	0.00641457
998.5000	0.00642339
998.0000	0.00643592
997.5000	0.00644221
997.0000	0.00645986
996.5000	0.00646947
996.0000	0.00648589
995.5000	0.00649451
995.0000	0.00651207
994.5000	0.00652569
994.0000	0.00654176
993.5000	0.00655426
993.0000	0.00657204
992.5000	0.00658225
992.0000	0.00660001
991.5000	0.00661401
991.0000	0.00663222
990.5000	0.00664303
990.0000	0.00666097
989.5000	0.00667269
989.0000	0.00668911
988.5000	0.00670069
988.0000	0.00671508
987.5000	0.00672512
987.0000	0.00674352
986.5000	0.00675355
986.0000	0.00677284
985.5000	0.0067871
985.0000	0.00680336
984.5000	0.0068174
984.0000	0.00683383
983.5000	0.00684385
983.0000	0.00686279
982.5000	0.0068777
982.0000	0.00689676
981.5000	0.0069083
981.0000	0.00692985
980.5000	0.00694145
980.0000	0.00695996
979.5000	0.00697145
979.0000	0.00698846
978.5000	0.00700163
978.0000	0.00701884
977.5000	0.00703253
977.0000	0.0070544
976.5000	0.00706832
976.0000	0.00708598
975.5000	0.00710103
975.0000	0.0071208
974.5000	0.00713395
974.0000	0.00715249
973.5000	0.0071657
973.0000	0.0071882
972.5000	0.00720483
972.0000	0.00722548
971.5000	0.00723797
971.0000	0.00725912
970.5000	0.00727325
970.0000	0.00728912
969.5000	0.00730418
969.0000	0.00732326
968.5000	0.00734029
968.0000	0.00736334
967.5000	0.0073815
967.0000	0.00740203
966.5000	0.00741535
966.0000	0.0074373
965.5000	0.00745181
965.0000	0.00747528
964.5000	0.00749158
964.0000	0.00751701
963.5000	0.00753172
963.0000	0.00755194
962.5000	0.00756863
962.0000	0.00758837
961.5000	0.00760252
961.0000	0.0076242
960.5000	0.00764072
960.0000	0.00766162
959.5000	0.00767384
959.0000	0.00769482
958.5000	0.00771124
958.0000	0.00772915
957.5000	0.00774564
957.0000	0.00777691
956.5000	0.00779519
956.0000	0.00781843
955.5000	0.00783664
955.0000	0.0078598
954.5000	0.00787396
954.0000	0.00789976
953.5000	0.00791817
953.0000	0.00794452
952.5000	0.00796325
952.0000	0.007995
951.5000	0.00801456
951.0000	0.00803903
950.5000	0.00805545
950.0000	0.00807831
949.5000	0.00809791
949.0000	0.00812362
948.5000	0.00814158
948.0000	0.00816923
947.5000	0.00818816
947.0000	0.00821731
946.5000	0.00823885
946.0000	0.00826244
945.5000	0.00827764
945.0000	0.00830472
944.5000	0.00832392
944.0000	0.0083517
943.5000	0.00837284
943.0000	0.00839502
942.5000	0.00841404
942.0000	0.0084418
941.5000	0.00846112
941.0000	0.00848536
940.5000	0.00850213
940.0000	0.00852848
939.5000	0.00854908
939.0000	0.00857633
938.5000	0.00859388
938.0000	0.00861852
937.5000	0.00863482
937.0000	0.00866697
936.5000	0.00869144
936.0000	0.0087295
935.5000	0.0087496
935.0000	0.00877817
934.5000	0.00880082
934.0000	0.00882999
933.5000	0.00885453
933.0000	0.00888457
932.5000	0.00891046
932.0000	0.00894112
931.5000	0.00896486
931.0000	0.00899648
930.5000	0.00902083
930.0000	0.00905238
929.5000	0.00907455
929.0000	0.00910594
928.5000	0.00913309
928.0000	0.00916948
927.5000	0.00919735
927.0000	0.00923082
926.5000	0.00925671
926.0000	0.00929065
925.5000	0.00931797
925.0000	0.00935653
924.5000	0.00938296
924.0000	0.00941695
923.5000	0.00944003
923.0000	0.00946994
922.5000	0.00949566
922.0000	0.00953015
921.5000	0.00955315
921.0000	0.00958706
920.5000	0.00961645
920.0000	0.00965554
919.5000	0.00968407
919.0000	0.00971978
918.5000	0.00974614
918.0000	0.00978226
917.5000	0.00981367
917.0000	0.00985658
916.5000	0.0098912
916.0000	0.00993549
915.5000	0.00996981
915.0000	0.0100177
914.5000	0.0100471
914.0000	0.0100933
913.5000	0.0101199
913.0000	0.0101549
912.5000	0.0101903
912.0000	0.0102374
911.5000	0.010276
911.0000	0.0103199
910.5000	0.0103512
910.0000	0.0104016
909.5000	0.0104354
909.0000	0.0104813
908.5000	0.010515
908.0000	0.0105628
907.5000	0.0105981
907.0000	0.0106553
906.5000	0.0106929
906.0000	0.0107403
905.5000	0.0107747
905.0000	0.0108249
904.5000	0.0108634
904.0000	0.0109153
903.5000	0.0109481
903.0000	0.0109984
902.5000	0.0110345
902.0000	0.0110889
901.5000	0.0111317
901.0000	0.0111884
900.5000	0.0112277
900.0000	0.0112855
899.5000	0.0113261
899.0000	0.011381
898.5000	0.0114236
898.0000	0.0114867
897.5000	0.011526
897.0000	0.0115856
896.5000	0.0116292
896.0000	0.0116902
895.5000	0.0117295
895.0000	0.0117888
894.5000	0.0118333
894.0000	0.0118966
893.5000	0.0119389
893.0000	0.0120036
892.5000	0.0120526
892.0000	0.0121168
891.5000	0.0121614
891.0000	0.0122331
890.5000	0.0122894
890.0000	0.0123643
889.5000	0.0124189
889.0000	0.0124981
888.5000	0.0125581
888.0000	0.0126376
887.5000	0.0126908
887.0000	0.0127779
886.5000	0.0128271
886.0000	0.0129137
885.5000	0.0129737
885.0000	0.0130612
884.5000	0.0131195
884.0000	0.0132034
883.5000	0.0132648
883.0000	0.0133552
882.5000	0.0134154
882.0000	0.013498
881.5000	0.0135561
881.0000	0.0136493
880.5000	0.0137127
880.0000	0.0138127
879.5000	0.013875
879.0000	0.0139766
878.5000	0.0140442
878.0000	0.0141534
877.5000	0.0142228
877.0000	0.0143327
876.5000	0.0144046
876.0000	0.0145178
875.5000	0.0145978
875.0000	0.0147148
874.5000	0.0147977
874.0000	0.0149208
873.5000	0.015007
873.0000	0.0151369
872.5000	0.0152222
872.0000	0.0153534
871.5000	0.0154409
871.0000	0.0155752
870.5000	0.0156656
870.0000	0.0158029
869.5000	0.0158933
869.0000	0.0160285
868.5000	0.0161351
868.0000	0.0162768
867.5000	0.0163751
867.0000	0.0165272
866.5000	0.0166219
866.0000	0.0167714
865.5000	0.0168736
865.0000	0.0170337
864.5000	0.0171458
864.0000	0.0173129
863.5000	0.0174234
863.0000	0.0176132
862.5000	0.0177346
862.0000	0.0179196
861.5000	0.0180427
861.0000	0.0182371
860.5000	0.0183664
860.0000	0.0185576
859.5000	0.0186931
859.0000	0.0188975
858.5000	0.0190398
858.0000	0.0192498
857.5000	0.0193942
857.0000	0.0196098
856.5000	0.0197532
856.0000	0.0199759
855.5000	0.020116
855.0000	0.0203522
854.5000	0.0205063
854.0000	0.020746
853.5000	0.0209091
853.0000	0.0211539
852.5000	0.0213197
852.0000	0.0215689
851.5000	0.0217497
851.0000	0.0220197
850.5000	0.0221968
850.0000	0.0218152
849.5000	0.0219963
849.0000	0.0222358
848.5000	0.0224168
848.0000	0.0227419
847.5000	0.0229303
847.0000	0.0232142
846.5000	0.0234346
846.0000	0.0237758
845.5000	0.0239598
845.0000	0.0243135
844.5000	0.0245116
844.0000	0.0248399
843.5000	0.0250236
843.0000	0.0253524
842.5000	0.0256205
842.0000	0.025948
841.5000	0.0261494
841.0000	0.0265133
840.5000	0.0267861
840.0000	0.0271117
839.5000	0.0273379
839.0000	0.0277248
838.5000	0.0279522
838.0000	0.0283661
837.5000	0.0286286
837.0000	0.0290776
836.5000	0.0293199
836.0000	0.0297126
835.5000	0.0299658
835.0000	0.030404
834.5000	0.0306904
834.0000	0.0310964
833.5000	0.0314209
833.0000	0.0318856
832.5000	0.0321903
832.0000	0.0326425
831.5000	0.0329322
831.0000	0.0333597
830.5000	0.0336287
830.0000	0.0341323
829.5000	0.0344329
829.0000	0.0349207
828.5000	0.0352395
828.0000	0.0356716
827.5000	0.0359712
827.0000	0.0364536
826.5000	0.0367724
826.0000	0.0372378
825.5000	0.0376227
825.0000	0.0381462
824.5000	0.038518
824.0000	0.0389958
823.5000	0.0393347
823.0000	0.0398057
822.5000	0.0401369
822.0000	0.0406688
821.5000	0.0410275
821.0000	0.0415221
820.5000	0.0418576
820.0000	0.0423728
819.5000	0.0427094
819.0000	0.0432028
818.5000	0.0435325
818.0000	0.0440373
817.5000	0.0444155
817.0000	0.0449182
816.5000	0.045311
816.0000	0.0458479
815.5000	0.0461902
815.0000	0.0467336
814.5000	0.0470891
814.0000	0.0476194
813.5000	0.0479701
813.0000	0.0485393
812.5000	0.0489215
812.0000	0.0494829
811.5000	0.049851
811.0000	0.0503949
810.5000	0.0507898
810.0000	0.0513252
809.5000	0.0516941
809.0000	0.0522575
808.5000	0.0526398
808.0000	0.0531889
807.5000	0.0535693
807.0000	0.054098
806.5000	0.0544367
806.0000	0.0549915
805.5000	0.0553469
805.0000	0.0558915
804.5000	0.056245
804.0000	0.0567849
803.5000	0.0571298
803.0000	0.0576572
802.5000	0.0580267
802.0000	0.0585745
801.5000	0.0589445
801.0000	0.0594672
800.5000	0.0598509
800.0000	0.0603862
799.5000	0.0607389
799.0000	0.0612803
798.5000	0.0616448
798.0000	0.0622063
797.5000	0.0625384
797.0000	0.0630699
796.5000	0.0634419
796.0000	0.0639392
795.5000	0.0642739
795.0000	0.0647823
794.5000	0.0651608
794.0000	0.0656361
793.5000	0.0659822
793.0000	0.0665043
792.5000	0.0668401
792.0000	0.0673132
791.5000	0.0676148
791.0000	0.0681387
790.5000	0.0684549
790.0000	0.0689388
789.5000	0.0692886
789.0000	0.0697832
788.5000	0.0701211
788.0000	0.0706317
787.5000	0.0709817
787.0000	0.0714807
786.5000	0.0718156
786.0000	0.0722895
785.5000	0.0726304
785.0000	0.0731176
784.5000	0.0734501
784.0000	0.0739536
783.5000	0.0742687
783.0000	0.0747516
782.5000	0.0750618
782.0000	0.0755188
781.5000	0.0758357
781.0000	0.0763239
780.5000	0.0766266
780.0000	0.0770704
779.5000	0.0773863
779.0000	0.0778615
778.5000	0.07818
778.0000	0.0786532
777.5000	0.0789679
777.0000	0.0794384
776.5000	0.0797557
776.0000	0.080261
775.5000	0.0805562
775.0000	0.0809987
774.5000	0.081285
774.0000	0.0817397
773.5000	0.0820718
773.0000	0.0825334
772.5000	0.0828506
772.0000	0.0832941
771.5000	0.0835834
771.0000	0.0840328
770.5000	0.084324
770.0000	0.0847605
769.5000	0.0850586
769.0000	0.0855133
768.5000	0.0858243
768.0000	0.0863154
767.5000	0.0866136
767.0000	0.087053
766.5000	0.087361
766.0000	0.087855
765.5000	0.0881697
765.0000	0.0886692
764.5000	0.0889849
764.0000	0.0894799
763.5000	0.0898288
763.0000	0.0903076
762.5000	0.090663
762.0000	0.0911745
761.5000	0.09151
761.0000	0.0920394
760.5000	0.092375
760.0000	0.0928591
759.5000	0.0932028
759.0000	0.0936875
758.5000	0.0940276
758.0000	0.0945447
757.5000	0.0948878
757.0000	0.0953924
756.5000	0.0957439
756.0000	0.0962744
755.5000	0.0965995
755.0000	0.0971122
754.5000	0.0974613
754.0000	0.0980221
753.5000	0.0983652
753.0000	0.0989276
752.5000	0.099284
752.0000	0.0998409
751.5000	0.100223
751.0000	0.100753
750.5000	0.101124
750.0000	0.10167
749.5000	0.102036
749.0000	0.102613
748.5000	0.102968
748.0000	0.103509
747.5000	0.103876
747.0000	0.10442
746.5000	0.104761
746.0000	0.105309
745.5000	0.105672
745.0000	0.106182
744.5000	0.106555
744.0000	0.107059
743.5000	0.10741
743.0000	0.10791
742.5000	0.108254
742.0000	0.108791
741.5000	0.109133
741.0000	0.109618
740.5000	0.10998
740.0000	0.110563
739.5000	0.110881
739.0000	0.111401
738.5000	0.111723
738.0000	0.112234
737.5000	0.112571
737.0000	0.11307
736.5000	0.113418
736.0000	0.113891
735.5000	0.114176
735.0000	0.114632
734.5000	0.114936
734.0000	0.115416
733.5000	0.115703
733.0000	0.116163
732.5000	0.116457
732.0000	0.116913
731.5000	0.117209
731.0000	0.117634
730.5000	0.117911
730.0000	0.118336
729.5000	0.118611
729.0000	0.119036
728.5000	0.119312
728.0000	0.119697
727.5000	0.119963
727.0000	0.120363
726.5000	0.120614
726.0000	0.121005
725.5000	0.121243
725.0000	0.121586
724.5000	0.121795
724.0000	0.122111
723.5000	0.122324
723.0000	0.122634
722.5000	0.122833
722.0000	0.123145
721.5000	0.123336
721.0000	0.123618
720.5000	0.123797
720.0000	0.124051
719.5000	0.124206
719.0000	0.124458
718.5000	0.12463
718.0000	0.124882
717.5000	0.125022
717.0000	0.125263
716.5000	0.125405
716.0000	0.125599
715.5000	0.125712
715.0000	0.125899
714.5000	0.126007
714.0000	0.126178
713.5000	0.126285
713.0000	0.126419
712.5000	0.126508
712.0000	0.126608
711.5000	0.126657
711.0000	0.126742
710.5000	0.126803
710.0000	0.126904
709.5000	0.126941
709.0000	0.127001
708.5000	0.127028
708.0000	0.127055
707.5000	0.127049
707.0000	0.127081
706.5000	0.127075
706.0000	0.127059
705.5000	0.127047
705.0000	0.127044
704.5000	0.127031
704.0000	0.126983
703.5000	0.126942
703.0000	0.126878
702.5000	0.126827
702.0000	0.126732
701.5000	0.126691
701.0000	0.126627
700.5000	0.126555
700.0000	0.126466
699.5000	0.126405
699.0000	0.126307
698.5000	0.126226
698.0000	0.126097
697.5000	0.126005
697.0000	0.125865
696.5000	0.125762
696.0000	0.125613
695.5000	0.125525
695.0000	0.125364
694.5000	0.125227
694.0000	0.12505
693.5000	0.124925
693.0000	0.124745
692.5000	0.124625
692.0000	0.124445
691.5000	0.12431
691.0000	0.124107
690.5000	0.123952
690.0000	0.123735
689.5000	0.123598
689.0000	0.123338
688.5000	0.123179
688.0000	0.12292
687.5000	0.12273
687.0000	0.122411
686.5000	0.122179
686.0000	0.12179
685.5000	0.12151
685.0000	0.121086
684.5000	0.120803
684.0000	0.120355
683.5000	0.120039
683.0000	0.119553
682.5000	0.119223
682.0000	0.118725
681.5000	0.118406
681.0000	0.117963
680.5000	0.11768
680.0000	0.117265
679.5000	0.117011
679.0000	0.116647
678.5000	0.11641
678.0000	0.116042
677.5000	0.115823
677.0000	0.115522
676.5000	0.115318
676.0000	0.115032
675.5000	0.114823
675.0000	0.114508
674.5000	0.114293
674.0000	0.113968
673.5000	0.113756
673.0000	0.113431
672.5000	0.113207
672.0000	0.112885
671.5000	0.112652
671.0000	0.112318
670.5000	0.112094
670.0000	0.111754
669.5000	0.111545
669.0000	0.111217
668.5000	0.110992
668.0000	0.110655
667.5000	0.11044
667.0000	0.110083
666.5000	0.109852
666.0000	0.109501
665.5000	0.109263
665.0000	0.108942
664.5000	0.108723
664.0000	0.108377
663.5000	0.108153
663.0000	0.107797
662.5000	0.107554
662.0000	0.107189
661.5000	0.106962
661.0000	0.106623
660.5000	0.106397
660.0000	0.106054
659.5000	0.105825
659.0000	0.105471
658.5000	0.105216
658.0000	0.10484
657.5000	0.10459
657.0000	0.104195
656.5000	0.103953
656.0000	0.103583
655.5000	0.103334
655.0000	0.102946
654.5000	0.102697
654.0000	0.102319
653.5000	0.102066
653.0000	0.101678
652.5000	0.10141
652.0000	0.101012
651.5000	0.100749
651.0000	0.100353
650.5000	0.100113
650.0000	0.0997256
649.5000	0.0994627
649.0000	0.0990479
648.5000	0.0987779
648.0000	0.0983709
647.5000	0.0980792
647.0000	0.0976606
646.5000	0.0973867
646.0000	0.0969764
645.5000	0.0967284
645.0000	0.0962876
644.5000	0.0960029
644.0000	0.0955518
643.5000	0.0952403
643.0000	0.0948138
642.5000	0.0945316
642.0000	0.0940756
641.5000	0.0937787
641.0000	0.0933429
640.5000	0.093058
640.0000	0.0926
639.5000	0.0922896
639.0000	0.091835
638.5000	0.0915441
638.0000	0.0910778
637.5000	0.0907776
637.0000	0.0903173
636.5000	0.0900188
636.0000	0.089562
635.5000	0.0892691
635.0000	0.0888049
634.5000	0.0884951
634.0000	0.0880134
633.5000	0.087696
633.0000	0.0872409
632.5000	0.0869051
632.0000	0.0864224
631.5000	0.0861106
631.0000	0.0856204
630.5000	0.0853246
630.0000	0.084841
629.5000	0.084499
629.0000	0.0840046
628.5000	0.083695
628.0000	0.0832124
627.5000	0.0828976
627.0000	0.0824189
626.5000	0.0820809
626.0000	0.0816253
625.5000	0.0813227
625.0000	0.0808534
624.5000	0.0805474
624.0000	0.0800467
623.5000	0.0797273
623.0000	0.0792658
622.5000	0.0789519
622.0000	0.0784556
621.5000	0.0781238
621.0000	0.07764
620.5000	0.0773279
620.0000	0.0769016
619.5000	0.0765851
619.0000	0.0761234
618.5000	0.075806
618.0000	0.0753326
617.5000	0.0750101
617.0000	0.0745249
616.5000	0.0741925
616.0000	0.0737191
615.5000	0.0734163
615.0000	0.0729419
614.5000	0.0726424
614.0000	0.0721751
613.5000	0.0718726
613.0000	0.0714288
612.5000	0.0711287
612.0000	0.0706779
611.5000	0.0703713
611.0000	0.0699426
610.5000	0.0696717
610.0000	0.0692513
609.5000	0.0689619
609.0000	0.0685177
608.5000	0.068245
608.0000	0.0678026
607.5000	0.0675089
607.0000	0.0670647
606.5000	0.0667821
606.0000	0.066336
605.5000	0.066053
605.0000	0.0656189
604.5000	0.0653379
604.0000	0.0648999
603.5000	0.0646031
603.0000	0.0641971
602.5000	0.0639109
602.0000	0.0634971
601.5000	0.0632096
601.0000	0.0627988
600.5000	0.0625184
600.0000	0.0620943
599.5000	0.0618158
599.0000	0.0614358
598.5000	0.0611684
598.0000	0.0607545
597.5000	0.0604848
597.0000	0.0600784
596.5000	0.0598075
596.0000	0.0593953
595.5000	0.0591342
595.0000	0.0587486
594.5000	0.0584807
594.0000	0.0580961
593.5000	0.0578428
593.0000	0.0574554
592.5000	0.0571737
592.0000	0.056774
591.5000	0.0565062
591.0000	0.056134
590.5000	0.0558896
590.0000	0.0555386
589.5000	0.0553018
589.0000	0.0549294
588.5000	0.0546843
588.0000	0.0542965
587.5000	0.0540518
587.0000	0.0537066
586.5000	0.0534801
586.0000	0.0531251
585.5000	0.0528973
585.0000	0.0525568
584.5000	0.0523411
584.0000	0.0519512
583.5000	0.0516963
583.0000	0.051319
582.5000	0.0510697
582.0000	0.0507194
581.5000	0.0504893
581.0000	0.0501189
580.5000	0.0498601
580.0000	0.0494844
579.5000	0.0492613
579.0000	0.0488902
578.5000	0.0486512
578.0000	0.0482997
577.5000	0.0480836
577.0000	0.0477497
576.5000	0.0475297
576.0000	0.0471942
575.5000	0.0469619
575.0000	0.0466266
574.5000	0.0463991
574.0000	0.0460788
573.5000	0.0458618
573.0000	0.0455383
572.5000	0.0453192
572.0000	0.0449854
571.5000	0.0447799
571.0000	0.0444538
570.5000	0.044256
570.0000	0.0439181
569.5000	0.0437134
569.0000	0.0434136
568.5000	0.0431945
568.0000	0.042885
567.5000	0.0426662
567.0000	0.0423282
566.5000	0.0421222
566.0000	0.0418383
565.5000	0.0416269
565.0000	0.0412997
564.5000	0.0410885
564.0000	0.040774
563.5000	0.0405751
563.0000	0.0402738
562.5000	0.0400504
562.0000	0.0397567
561.5000	0.0395681
561.0000	0.0392839
560.5000	0.0390921
560.0000	0.0387974
559.5000	0.0385838
559.0000	0.0383308
558.5000	0.0381564
558.0000	0.0378666
557.5000	0.0376716
557.0000	0.0374037
556.5000	0.0372054
556.0000	0.0369314
555.5000	0.0367502
555.0000	0.0364772
554.5000	0.0362854
554.0000	0.0360169
553.5000	0.0358316
553.0000	0.0355638
552.5000	0.0353792
552.0000	0.0351187
551.5000	0.0349315
551.0000	0.0346803
550.5000	0.034508
550.0000	0.0342624
549.5000	0.0340838
549.0000	0.033835
548.5000	0.0336605
548.0000	0.0334221
547.5000	0.0332441
547.0000	0.0329938
546.5000	0.0328307
546.0000	0.0325844
545.5000	0.0324004
545.0000	0.0321602
544.5000	0.032001
544.0000	0.0317398
543.5000	0.031581
543.0000	0.0313383
542.5000	0.0311794
542.0000	0.0309459
541.5000	0.0307898
541.0000	0.0305539
540.5000	0.0304048
540.0000	0.0301649
539.5000	0.0300028
539.0000	0.0297715
538.5000	0.0296186
538.0000	0.0293828
537.5000	0.0292496
537.0000	0.0290328
536.5000	0.0288829
536.0000	0.0286388
535.5000	0.0284817
535.0000	0.0282634
534.5000	0.028141
534.0000	0.0279364
533.5000	0.027801
533.0000	0.0275819
532.5000	0.0274546
532.0000	0.0272333
531.5000	0.0271047
531.0000	0.0269024
530.5000	0.0267516
530.0000	0.0265595
529.5000	0.0264571
529.0000	0.0262691
528.5000	0.0261321
528.0000	0.0259254
527.5000	0.0257924
527.0000	0.0255993
526.5000	0.0254791
526.0000	0.0252909
525.5000	0.0251785
525.0000	0.0249818
524.5000	0.0248616
524.0000	0.0246991
523.5000	0.024594
523.0000	0.0243917
522.5000	0.0242657
522.0000	0.0240916
521.5000	0.0239572
521.0000	0.0237938
520.5000	0.0236883
520.0000	0.0235173
519.5000	0.0234048
519.0000	0.0232315
518.5000	0.0231326
518.0000	0.0229431
517.5000	0.0228353
517.0000	0.0226564
516.5000	0.0225515
516.0000	0.0223997
515.5000	0.0222876
515.0000	0.0221442
514.5000	0.0220615
514.0000	0.0218977
513.5000	0.0217784
513.0000	0.0216436
512.5000	0.0215691
512.0000	0.0214288
511.5000	0.0213411
511.0000	0.0212002
510.5000	0.0211073
510.0000	0.0210308
509.5000	0.0209484
509.0000	0.020817
508.5000	0.0207334
508.0000	0.0206005
507.5000	0.0205127
507.0000	0.0204056
506.5000	0.0203231
506.0000	0.0202045
505.5000	0.0201211
505.0000	0.0200219
504.5000	0.0199479
504.0000	0.0198495
503.5000	0.0198
503.0000	0.0196915
502.5000	0.0196351
502.0000	0.0195127
501.5000	0.0194502
501.0000	0.0193549
500.5000	0.0193132
500.0000	0.0192459
499.5000	0.0191836
499.0000	0.0191199
498.5000	0.019098
498.0000	0.0190091
497.5000	0.0189677
497.0000	0.0188944
496.5000	0.0188434
496.0000	0.0187816
495.5000	0.0187609
495.0000	0.0187013
494.5000	0.0186688
494.0000	0.0186025
493.5000	0.0185591
493.0000	0.0185306
492.5000	0.0185044
492.0000	0.0184426
491.5000	0.0184264
491.0000	0.0183837
490.5000	0.01838
490.0000	0.0183551
489.5000	0.0183296
489.0000	0.0183102
488.5000	0.0182993
488.0000	0.0183043
487.5000	0.0183084
487.0000	0.0183026
486.5000	0.0182944
486.0000	0.0182961
485.5000	0.0183055
485.0000	0.0183209
484.5000	0.0183465
484.0000	0.0183426
483.5000	0.0183492
483.0000	0.0183875
482.5000	0.0184065
482.0000	0.0184292
481.5000	0.0184448
481.0000	0.0184964
480.5000	0.018508
480.0000	0.0185547
479.5000	0.0185852
479.0000	0.0186313
478.5000	0.0186733
478.0000	0.0187266
477.5000	0.0187754
477.0000	0.0188429
476.5000	0.018879
476.0000	0.0189427
475.5000	0.0189985
475.0000	0.0190577
474.5000	0.0191054
474.0000	0.0191796
473.5000	0.0192345
473.0000	0.0193083
472.5000	0.0193636
472.0000	0.0194654
471.5000	0.0195187
471.0000	0.0196164
470.5000	0.0197126
470.0000	0.019832
469.5000	0.0199148
469.0000	0.0200223
468.5000	0.0201121
468.0000	0.0202412
467.5000	0.0203512
467.0000	0.0204768
466.5000	0.0205732
466.0000	0.0207187
465.5000	0.0208093
465.0000	0.0209712
464.5000	0.0210921
464.0000	0.0212773
463.5000	0.0213777
463.0000	0.0215622
462.5000	0.021691
462.0000	0.0219037
461.5000	0.0220615
461.0000	0.0222863
460.5000	0.0224502
460.0000	0.0227054
459.5000	0.0228827
459.0000	0.0231318
458.5000	0.0233144
458.0000	0.0235875
457.5000	0.0237855
457.0000	0.0241064
456.5000	0.0243073
456.0000	0.0246368
455.5000	0.0248533
455.0000	0.0252148
454.5000	0.0254699
454.0000	0.0258641
453.5000	0.0261299
453.0000	0.0265409
452.5000	0.0268392
452.0000	0.0272887
451.5000	0.0275963
451.0000	0.028087
450.5000	0.0284383
450.0000	0.0290311
449.5000	0.0293975
449.0000	0.0300011
448.5000	0.030414
448.0000	0.0310606
447.5000	0.0314904
447.0000	0.0321868
446.5000	0.0326793
446.0000	0.0334419
445.5000	0.0339439
445.0000	0.0347612
444.5000	0.0353244
444.0000	0.0361956
443.5000	0.0367783
443.0000	0.0376952
442.5000	0.0383436
442.0000	0.039342
441.5000	0.0400326
441.0000	0.0410978
440.5000	0.0418329
440.0000	0.0429269
439.5000	0.043701
439.0000	0.0449148
438.5000	0.0457183
438.0000	0.0469698
437.5000	0.0478393
437.0000	0.0492081
436.5000	0.0501707
436.0000	0.0515895
435.5000	0.052576
435.0000	0.0541018
434.5000	0.0551431
434.0000	0.0567447
433.5000	0.0578533
433.0000	0.0595264
432.5000	0.0607148
432.0000	0.0625314
431.5000	0.0637582
431.0000	0.0656211
430.5000	0.0668898
430.0000	0.0688235
429.5000	0.0701745
429.0000	0.072203
428.5000	0.0735747
428.0000	0.0756678
427.5000	0.0770842
427.0000	0.0792644
426.5000	0.0807005
426.0000	0.0828512
425.5000	0.0843054
425.0000	0.0865314
424.5000	0.0880173
424.0000	0.0902696
423.5000	0.0917733
423.0000	0.0940057
422.5000	0.0955106
422.0000	0.0977594
421.5000	0.0992505
421.0000	0.101474
420.5000	0.102957
420.0000	0.105183
419.5000	0.10665
419.0000	0.108821
418.5000	0.110287
418.0000	0.112404
417.5000	0.113834
417.0000	0.115917
416.5000	0.117324
416.0000	0.119347
415.5000	0.120656
415.0000	0.122615
414.5000	0.123898
414.0000	0.125753
413.5000	0.126986
413.0000	0.128779
412.5000	0.129915
412.0000	0.131588
411.5000	0.132654
411.0000	0.134152
410.5000	0.135102
410.0000	0.136547
409.5000	0.137464
409.0000	0.138794
408.5000	0.139638
408.0000	0.140794
407.5000	0.141558
407.0000	0.142579
406.5000	0.143211
406.0000	0.144129
405.5000	0.144683
405.0000	0.145527
404.5000	0.14603
404.0000	0.146734
403.5000	0.147189
403.0000	0.14776
402.5000	0.148094
402.0000	0.148537
401.5000	0.14874
401.0000	0.148985
400.5000	0.14921
400.0000	0.149519
399.5000	0.149663
399.0000	0.149843
398.5000	0.149905
398.0000	0.149998
397.5000	0.150052
397.0000	0.150036
396.5000	0.150039
396.0000	0.149953
395.5000	0.149955
395.0000	0.149984
394.5000	0.149966
394.0000	0.149785
393.5000	0.149663
393.0000	0.149408
392.5000	0.149246
392.0000	0.148926
391.5000	0.148713
391.0000	0.14839
390.5000	0.148151
390.0000	0.147772
389.5000	0.147508
389.0000	0.147044
388.5000	0.146702
388.0000	0.146255
387.5000	0.145939
387.0000	0.145458
386.5000	0.145146
386.0000	0.144625
385.5000	0.144299
385.0000	0.143763
384.5000	0.143378
384.0000	0.14285
383.5000	0.142449
383.0000	0.141898
382.5000	0.141479
382.0000	0.140905
381.5000	0.1405
381.0000	0.139889
380.5000	0.139429
380.0000	0.13876
379.5000	0.13832
379.0000	0.137606
378.5000	0.137202
378.0000	0.136491
377.5000	0.136015
377.0000	0.135306
376.5000	0.134797
376.0000	0.134133
375.5000	0.133658
375.0000	0.132932
374.5000	0.132418
374.0000	0.131696
373.5000	0.131203
373.0000	0.130461
372.5000	0.129979
372.0000	0.129207
371.5000	0.128674
371.0000	0.127914
370.5000	0.127367
370.0000	0.126382
369.5000	0.125822
369.0000	0.124928
368.5000	0.124337
368.0000	0.123409
367.5000	0.122867
367.0000	0.122014
366.5000	0.121399
366.0000	0.120446
365.5000	0.119815
365.0000	0.118954
364.5000	0.11837
364.0000	0.11741
363.5000	0.116788
363.0000	0.115787
362.5000	0.115175
362.0000	0.114216
361.5000	0.113564
361.0000	0.112549
360.5000	0.11187
360.0000	0.110934
359.5000	0.110268
359.0000	0.10933
358.5000	0.108718
358.0000	0.107656
357.5000	0.107011
357.0000	0.10602
356.5000	0.105367
356.0000	0.104373
355.5000	0.103742
355.0000	0.102815
354.5000	0.102209
354.0000	0.101202
353.5000	0.100561
353.0000	0.0996195
352.5000	0.0989903
352.0000	0.0980748
351.5000	0.0975563
351.0000	0.0966854
350.5000	0.0961073
350.0000	0.0952323
349.5000	0.0946668
349.0000	0.0938
348.5000	0.093212
348.0000	0.0923647
347.5000	0.0918567
347.0000	0.0910703
346.5000	0.0905301
346.0000	0.0897571
345.5000	0.0892621
345.0000	0.0884404
344.5000	0.0878777
344.0000	0.0871728
343.5000	0.0867098
343.0000	0.0859573
342.5000	0.085523
342.0000	0.0848059
341.5000	0.0843478
341.0000	0.0836883
340.5000	0.0832181
340.0000	0.082593
339.5000	0.082164
339.0000	0.0815271
338.5000	0.0811416
338.0000	0.0805553
337.5000	0.08018
337.0000	0.0795075
336.5000	0.0791225
336.0000	0.0785509
335.5000	0.0781598
335.0000	0.0775047
334.5000	0.0771423
334.0000	0.0765609
333.5000	0.0761675
333.0000	0.0756066
332.5000	0.0752654
332.0000	0.0747163
331.5000	0.0743338
331.0000	0.0737683
330.5000	0.0733805
330.0000	0.0728386
329.5000	0.0724818
329.0000	0.0718298
328.5000	0.071435
328.0000	0.0708403
327.5000	0.0704571
327.0000	0.0698478
326.5000	0.0694651
326.0000	0.0688533
325.5000	0.0684118
325.0000	0.0677665
324.5000	0.0673424
324.0000	0.0667152
323.5000	0.0663227
323.0000	0.0656137
322.5000	0.0652338
322.0000	0.064616
321.5000	0.0641746
321.0000	0.0634506
320.5000	0.0629577
320.0000	0.0622234
319.5000	0.0617791
319.0000	0.0611202
318.5000	0.0606711
318.0000	0.0598651
317.5000	0.059311
317.0000	0.0584601
316.5000	0.0579613
316.0000	0.0571022
315.5000	0.0565035
315.0000	0.0555481
314.5000	0.0549904
314.0000	0.0541531
313.5000	0.0534954
313.0000	0.0524746
312.5000	0.0518431
312.0000	0.0508797
311.5000	0.0503044
311.0000	0.0493256
310.5000	0.0486943
310.0000	0.0477922
309.5000	0.0471381
309.0000	0.0463124
308.5000	0.0456547
308.0000	0.0446859
307.5000	0.0439834
307.0000	0.0429697
306.5000	0.0422851
306.0000	0.0412183
305.5000	0.0405411
305.0000	0.0394551
304.5000	0.0387637
304.0000	0.0376674
303.5000	0.0368115
303.0000	0.035588
302.5000	0.0347484
302.0000	0.0335952
301.5000	0.0327896
301.0000	0.0319752
300.5000	0.0312643
300.0000	0.0302944
299.5000	0.0295386
299.0000	0.0288187
298.5000	0.0278783
298.0000	0.0263395
297.5000	0.0253755
297.0000	0.0248334
296.5000	0.0243663
296.0000	0.0234991
295.5000	0.0229941
295.0000	0.0229449
294.5000	0.023186
294.0000	0.0230653
293.5000	0.0227533
293.0000	0.0211588
292.5000	0.0212598
292.0000	0.021839
291.5000	0.0225163
291.0000	0.0217479
290.5000	0.0223003
290.0000	0.0224332
289.5000	0.0245423
289.0000	0.0266468
288.5000	0.0264034
288.0000	0.0273695
287.5000	0.0291149
287.0000	0.0314555
286.5000	0.0362884
286.0000	0.0389487
285.5000	0.0398868
285.0000	0.0455049
284.5000	0.0491373
284.0000	0.0507293
283.5000	0.052987
283.0000	0.0515376
282.5000	0.0509027
282.0000	0.0518211
281.5000	0.0543527
281.0000	0.0535986
280.5000	0.0512104
280.0000	0.0473227
279.5000	0.0489806
279.0000	0.0505867
278.5000	0.0487798
278.0000	0.046816
277.5000	0.0453375
277.0000	0.0462041
276.5000	0.0461217
276.0000	0.0458969
275.5000	0.045332
275.0000	0.0424898
274.5000	0.0422019
274.0000	0.0442365
273.5000	0.0431901
273.0000	0.0412865
272.5000	0.038989
272.0000	0.0394246
271.5000	0.0384689
271.0000	0.0369393
270.5000	0.0368168
270.0000	0.035618
269.5000	0.0358214
269.0000	0.0364889
268.5000	0.0352538
268.0000	0.0321085
267.5000	0.0311558
267.0000	0.0280289
266.5000	0.0267106
266.0000	0.0292265
265.5000	0.0320913
265.0000	0.0303389
264.5000	0.0334596
264.0000	0.0358996
263.5000	0.0354704
263.0000	0.038443
262.5000	0.0379303
262.0000	0.0397263
261.5000	0.0420298
261.0000	0.0429377
260.5000	0.0487605
260.0000	0.0475843
259.5000	0.0467515
259.0000	0.0468712
258.5000	0.0479837
258.0000	0.0444462
257.5000	0.0416494
257.0000	0.0415706
256.5000	0.0385626
256.0000	0.036179
255.5000	0.0336731
255.0000	0.0346146
254.5000	0.0326524
254.0000	0.0278473
253.5000	0.0287634
253.0000	0.0324304
252.5000	0.0307853
252.0000	0.0363514
251.5000	0.036144
251.0000	0.0375025
250.5000	0.0384705
250.0000	0.0401175
249.5000	0.0435753
249.0000	0.0419189
248.5000	0.0431814
248.0000	0.0433017
247.5000	0.0422774
247.0000	0.0434542
246.5000	0.0416216
246.0000	0.036366
245.5000	0.0380353
245.0000	0.0368862
244.5000	0.0350313
244.0000	0.0318748
243.5000	0.0312523
243.0000	0.0302318
242.5000	0.0330768
242.0000	0.0330891
241.5000	0.0371863
241.0000	0.0365678
240.5000	0.0386306
240.0000	0.0395515
239.5000	0.0401413
239.0000	0.0348768
238.5000	0.0392075
238.0000	0.0395091
237.5000	0.0369278
237.0000	0.0359828
236.5000	0.0327351
236.0000	0.0253271
235.5000	0.0258369
235.0000	0.0196046
234.5000	0.0188423
234.0000	0.0155971
233.5000	0.013699
233.0000	0.014347
232.5000	0.0139051
232.0000	0.0130229
231.5000	0.0113872
231.0000	0.015497
230.5000	0.0188877
230.0000	0.0232092
229.5000	0.0231403
229.0000	0.0200822
228.5000	0.0226981
228.0000	0.0258752
227.5000	0.0301612
227.0000	0.0290979
226.5000	0.0312226
226.0000	0.0338825
225.5000	0.0353033
225.0000	0.0393351
224.5000	0.0385518
224.0000	0.0382034
223.5000	0.0365496
223.0000	0.0402199
222.5000	0.0411538
222.0000	0.0404052
221.5000	0.0357152
221.0000	0.0295765
220.5000	0.0332547
220.0000	0.0325154
219.5000	0.0330879
219.0000	0.0306838
218.5000	0.0319625
218.0000	0.0304652
217.5000	0.0327446
217.0000	0.0340059
216.5000	0.0323012
216.0000	0.037576
215.5000	0.0359003
215.0000	0.0422959
214.5000	0.043394
214.0000	0.0401581
213.5000	0.0435868
213.0000	0.0412317
212.5000	0.0400478
212.0000	0.0398543
211.5000	0.0392745
211.0000	0.0389191
210.5000	0.0360704
210.0000	0.038858
209.5000	0.034709
209.0000	0.0327403
208.5000	0.0340178
208.0000	0.0357193
207.5000	0.0355565
207.0000	0.0335369
206.5000	0.0338704
206.0000	0.0343444
205.5000	0.0350803
205.0000	0.0359973
204.5000	0.0372923
204.0000	0.0358779
203.5000	0.0366456
203.0000	0.0412708
202.5000	0.0432541
202.0000	0.0423525
201.5000	0.0423218
201.0000	0.0406746
200.5000	0.0388237
200.0000	0.0356279

##### Extended Information
[Comments]
Sample name	N2200
Comment	DCB
User
Division
Company	ICMAB

[Detailed Information]
Creation date	21/10/25 1:57 PM

Data array type	Linear data array
Horizontal axis	Wavelength [nm]
Vertical axis	Abs
Start	1600 nm
End	200 nm
Data interval	0.5 nm
Data points	2801    

[Measurement Information]
Instrument name	V-780
Model name	V-780
Serial No.	D003961802

Accessory	FLH-741
Accessory S/N	B057261128
  Mask	
  Ref. beam	

Measurement date	21/10/25 1:57 PM

Photometric mode	Abs
Measurement range	1600 - 200 nm
Data interval	0.5 nm
UV/Vis bandwidth	1.0 nm
NIR bandwidth	2.0 nm
UV/Vis response	0.96 sec
NIR response	0.96 sec
Scan mode	Continuous
Scan speed	400 nm/min
Change source at	340 nm
Change grating at	850 nm
Light source	D2/WI
Filter exchange	Step
Correction	Baseline
No. of cycles	1

