TITLE	N2200
DATA TYPE	ULTRAVIOLET SPECTRUM
ORIGIN	JASCO
OWNER	
DATE	21/10/25
TIME	14:51:38
SPECTROMETER/DATA SYSTEM	
LOCALE	1033
RESOLUTION	
DELTAX	-0.5
XUNITS	NANOMETERS
YUNITS	ABSORBANCE
FIRSTX	 1600.0000
LASTX	  200.0000
NPOINTS	    2801
FIRSTY	     0.00051
MAXY	     0.09831
MINY	    -0.00346
XYDATA
1600.0000	0.000512587
1599.5000	0.000512652
1599.0000	0.000512812
1598.5000	0.000516224
1598.0000	0.00051461
1597.5000	0.00051588
1597.0000	0.000518407
1596.5000	0.000516195
1596.0000	0.000514152
1595.5000	0.000513272
1595.0000	0.000514126
1594.5000	0.000508624
1594.0000	0.000510823
1593.5000	0.000510181
1593.0000	0.000513687
1592.5000	0.000518736
1592.0000	0.000520295
1591.5000	0.000518911
1591.0000	0.000520996
1590.5000	0.00052009
1590.0000	0.000520365
1589.5000	0.000520676
1589.0000	0.00052666
1588.5000	0.000522371
1588.0000	0.000524951
1587.5000	0.00052495
1587.0000	0.000522769
1586.5000	0.000520916
1586.0000	0.000521189
1585.5000	0.000520995
1585.0000	0.000525159
1584.5000	0.000525722
1584.0000	0.000529079
1583.5000	0.000530102
1583.0000	0.000534425
1582.5000	0.000534073
1582.0000	0.000542422
1581.5000	0.000545203
1581.0000	0.000546366
1580.5000	0.000546222
1580.0000	0.000547401
1579.5000	0.000548625
1579.0000	0.000549571
1578.5000	0.000549274
1578.0000	0.000552991
1577.5000	0.000551783
1577.0000	0.000553644
1576.5000	0.000552513
1576.0000	0.000553818
1575.5000	0.000549841
1575.0000	0.000551981
1574.5000	0.000555573
1574.0000	0.00055882
1573.5000	0.000560244
1573.0000	0.000561128
1572.5000	0.000559731
1572.0000	0.000563828
1571.5000	0.000562741
1571.0000	0.000563266
1570.5000	0.00056569
1570.0000	0.000565371
1569.5000	0.000563642
1569.0000	0.000568073
1568.5000	0.000567847
1568.0000	0.000563122
1567.5000	0.000561509
1567.0000	0.000562766
1566.5000	0.000563286
1566.0000	0.000562535
1565.5000	0.000561773
1565.0000	0.000565296
1564.5000	0.000567384
1564.0000	0.000567866
1563.5000	0.000568889
1563.0000	0.000572483
1562.5000	0.000571621
1562.0000	0.000573809
1561.5000	0.000575342
1561.0000	0.000574786
1560.5000	0.000573483
1560.0000	0.000574324
1559.5000	0.000578249
1559.0000	0.000577641
1558.5000	0.000574893
1558.0000	0.000575472
1557.5000	0.000573862
1557.0000	0.000573029
1556.5000	0.000570236
1556.0000	0.00057096
1555.5000	0.000574382
1555.0000	0.000576058
1554.5000	0.000576366
1554.0000	0.000579393
1553.5000	0.000581541
1553.0000	0.000580872
1552.5000	0.000582127
1552.0000	0.000584792
1551.5000	0.000585031
1551.0000	0.000585915
1550.5000	0.000588331
1550.0000	0.000593772
1549.5000	0.000594231
1549.0000	0.000594999
1548.5000	0.000603664
1548.0000	0.000608244
1547.5000	0.000609917
1547.0000	0.000610487
1546.5000	0.000612214
1546.0000	0.000611798
1545.5000	0.000613763
1545.0000	0.000611323
1544.5000	0.000610923
1544.0000	0.000607583
1543.5000	0.00060956
1543.0000	0.00060977
1542.5000	0.000605401
1542.0000	0.00059773
1541.5000	0.000597931
1541.0000	0.000597526
1540.5000	0.00059436
1540.0000	0.000597358
1539.5000	0.000599904
1539.0000	0.000598294
1538.5000	0.000600437
1538.0000	0.000607205
1537.5000	0.000610914
1537.0000	0.000614144
1536.5000	0.00061759
1536.0000	0.000623032
1535.5000	0.000625537
1535.0000	0.000626127
1534.5000	0.000627219
1534.0000	0.000629867
1533.5000	0.000625429
1533.0000	0.000624234
1532.5000	0.000628378
1532.0000	0.000627164
1531.5000	0.000622228
1531.0000	0.000619547
1530.5000	0.000624251
1530.0000	0.000622267
1529.5000	0.000617396
1529.0000	0.000618992
1528.5000	0.00062365
1528.0000	0.000625808
1527.5000	0.000623774
1527.0000	0.000624536
1526.5000	0.00063119
1526.0000	0.00063343
1525.5000	0.000628894
1525.0000	0.000628523
1524.5000	0.000633488
1524.0000	0.000631144
1523.5000	0.000628175
1523.0000	0.000626533
1522.5000	0.000631206
1522.0000	0.000628098
1521.5000	0.000623685
1521.0000	0.000624365
1520.5000	0.000630738
1520.0000	0.000627804
1519.5000	0.000623316
1519.0000	0.000626339
1518.5000	0.000633592
1518.0000	0.000634167
1517.5000	0.000631271
1517.0000	0.000630763
1516.5000	0.000635442
1516.0000	0.000637798
1515.5000	0.000633946
1515.0000	0.000636697
1514.5000	0.000642862
1514.0000	0.000644727
1513.5000	0.00064377
1513.0000	0.000645491
1512.5000	0.000651953
1512.0000	0.000650776
1511.5000	0.000645402
1511.0000	0.000642313
1510.5000	0.000650116
1510.0000	0.000652034
1509.5000	0.000646762
1509.0000	0.000646024
1508.5000	0.000652591
1508.0000	0.000653477
1507.5000	0.00064983
1507.0000	0.000646787
1506.5000	0.000653349
1506.0000	0.000653674
1505.5000	0.000651032
1505.0000	0.000651456
1504.5000	0.000659689
1504.0000	0.000661375
1503.5000	0.000656808
1503.0000	0.000655528
1502.5000	0.000660855
1502.0000	0.00065887
1501.5000	0.000656179
1501.0000	0.000654948
1500.5000	0.000659339
1500.0000	0.000658489
1499.5000	0.000658329
1499.0000	0.000660725
1498.5000	0.000666746
1498.0000	0.00066862
1497.5000	0.0006704
1497.0000	0.000669114
1496.5000	0.000669663
1496.0000	0.000670103
1495.5000	0.000672143
1495.0000	0.000675349
1494.5000	0.000674076
1494.0000	0.000675024
1493.5000	0.000678836
1493.0000	0.000674653
1492.5000	0.000671757
1492.0000	0.000666172
1491.5000	0.000665527
1491.0000	0.000665419
1490.5000	0.000665625
1490.0000	0.000664515
1489.5000	0.000667986
1489.0000	0.000671777
1488.5000	0.000671383
1488.0000	0.000674793
1487.5000	0.000678145
1487.0000	0.000679866
1486.5000	0.000681589
1486.0000	0.000681417
1485.5000	0.000681542
1485.0000	0.000683879
1484.5000	0.00068572
1484.0000	0.000685533
1483.5000	0.000689453
1483.0000	0.000689804
1482.5000	0.00069246
1482.0000	0.000691595
1481.5000	0.000691562
1481.0000	0.000690291
1480.5000	0.000693431
1480.0000	0.000699129
1479.5000	0.000704841
1479.0000	0.000705806
1478.5000	0.00070589
1478.0000	0.000709836
1477.5000	0.000709072
1477.0000	0.000700493
1476.5000	0.00070079
1476.0000	0.000693982
1475.5000	0.000688076
1475.0000	0.000681673
1474.5000	0.000685868
1474.0000	0.000682267
1473.5000	0.000679759
1473.0000	0.00068177
1472.5000	0.000689428
1472.0000	0.000698656
1471.5000	0.000702662
1471.0000	0.000708297
1470.5000	0.000712505
1470.0000	0.0007165
1469.5000	0.000727309
1469.0000	0.000736948
1468.5000	0.000742107
1468.0000	0.000748346
1467.5000	0.000754264
1467.0000	0.000758753
1466.5000	0.000763383
1466.0000	0.000758665
1465.5000	0.00074893
1465.0000	0.000742464
1464.5000	0.000744955
1464.0000	0.000740696
1463.5000	0.000742192
1463.0000	0.000742741
1462.5000	0.000741925
1462.0000	0.000738288
1461.5000	0.00074057
1461.0000	0.00073296
1460.5000	0.000727058
1460.0000	0.000722314
1459.5000	0.00072481
1459.0000	0.000726922
1458.5000	0.000734459
1458.0000	0.000742434
1457.5000	0.000739635
1457.0000	0.00073765
1456.5000	0.000741197
1456.0000	0.000741865
1455.5000	0.000744943
1455.0000	0.000742545
1454.5000	0.000735332
1454.0000	0.000736613
1453.5000	0.000744738
1453.0000	0.000753433
1452.5000	0.00075673
1452.0000	0.00075975
1451.5000	0.000754556
1451.0000	0.000751376
1450.5000	0.000756818
1450.0000	0.000751135
1449.5000	0.000742959
1449.0000	0.000735299
1448.5000	0.000743845
1448.0000	0.000763387
1447.5000	0.000772116
1447.0000	0.000773114
1446.5000	0.000761651
1446.0000	0.00074865
1445.5000	0.000741165
1445.0000	0.000735726
1444.5000	0.000740077
1444.0000	0.000745225
1443.5000	0.000750011
1443.0000	0.000762385
1442.5000	0.000772759
1442.0000	0.000763817
1441.5000	0.000757662
1441.0000	0.000755758
1440.5000	0.000752486
1440.0000	0.000763812
1439.5000	0.000773601
1439.0000	0.000781866
1438.5000	0.000784087
1438.0000	0.000780712
1437.5000	0.000774077
1437.0000	0.000764568
1436.5000	0.000762979
1436.0000	0.000763768
1435.5000	0.000766728
1435.0000	0.000779575
1434.5000	0.000785278
1434.0000	0.000797923
1433.5000	0.000800923
1433.0000	0.000802391
1432.5000	0.000802288
1432.0000	0.000804216
1431.5000	0.000807459
1431.0000	0.00081847
1430.5000	0.000824046
1430.0000	0.000827276
1429.5000	0.000826499
1429.0000	0.000824648
1428.5000	0.000812099
1428.0000	0.000800227
1427.5000	0.000791246
1427.0000	0.000788227
1426.5000	0.000786717
1426.0000	0.000791806
1425.5000	0.00079095
1425.0000	0.000784267
1424.5000	0.000776606
1424.0000	0.000771856
1423.5000	0.000767558
1423.0000	0.000767508
1422.5000	0.000766338
1422.0000	0.000775954
1421.5000	0.000785316
1421.0000	0.000802399
1420.5000	0.000812915
1420.0000	0.000823676
1419.5000	0.000826043
1419.0000	0.00082474
1418.5000	0.000826002
1418.0000	0.000843087
1417.5000	0.000860861
1417.0000	0.00090382
1416.5000	0.000924019
1416.0000	0.000944687
1415.5000	0.000944831
1415.0000	0.000934277
1414.5000	0.000923407
1414.0000	0.000909804
1413.5000	0.000907678
1413.0000	0.000915189
1412.5000	0.000935297
1412.0000	0.000957053
1411.5000	0.000954956
1411.0000	0.000929476
1410.5000	0.00090045
1410.0000	0.00087817
1409.5000	0.000866508
1409.0000	0.000862979
1408.5000	0.000863564
1408.0000	0.000901913
1407.5000	0.000943837
1407.0000	0.00100563
1406.5000	0.00102218
1406.0000	0.000998019
1405.5000	0.00098235
1405.0000	0.00096417
1404.5000	0.000966672
1404.0000	0.000964431
1403.5000	0.000936803
1403.0000	0.00089924
1402.5000	0.000872877
1402.0000	0.000832547
1401.5000	0.000792422
1401.0000	0.0007115
1400.5000	0.000664089
1400.0000	0.000628341
1399.5000	0.000624419
1399.0000	0.000640974
1398.5000	0.000646207
1398.0000	0.000627757
1397.5000	0.000625699
1397.0000	0.000644369
1396.5000	0.000657812
1396.0000	0.000680018
1395.5000	0.000692516
1395.0000	0.000735366
1394.5000	0.00075736
1394.0000	0.000775037
1393.5000	0.000783862
1393.0000	0.00077702
1392.5000	0.000763869
1392.0000	0.000774275
1391.5000	0.00079155
1391.0000	0.000825283
1390.5000	0.000847001
1390.0000	0.000865215
1389.5000	0.000872227
1389.0000	0.000856875
1388.5000	0.000845573
1388.0000	0.00086953
1387.5000	0.00088376
1387.0000	0.000895505
1386.5000	0.00089611
1386.0000	0.000884007
1385.5000	0.000874692
1385.0000	0.000871373
1384.5000	0.000879819
1384.0000	0.000934741
1383.5000	0.000983837
1383.0000	0.00106279
1382.5000	0.00109204
1382.0000	0.00108118
1381.5000	0.0010537
1381.0000	0.00102709
1380.5000	0.00101996
1380.0000	0.00102605
1379.5000	0.00103506
1379.0000	0.00104284
1378.5000	0.00104026
1378.0000	0.000996167
1377.5000	0.00094677
1377.0000	0.000866239
1376.5000	0.000823807
1376.0000	0.000797188
1375.5000	0.000782748
1375.0000	0.000758726
1374.5000	0.000737435
1374.0000	0.000709534
1373.5000	0.000701244
1373.0000	0.000690981
1372.5000	0.00068636
1372.0000	0.00069243
1371.5000	0.00071232
1371.0000	0.000751246
1370.5000	0.000773483
1370.0000	0.000791259
1369.5000	0.000796481
1369.0000	0.000813996
1368.5000	0.000840129
1368.0000	0.000900409
1367.5000	0.000935222
1367.0000	0.000952902
1366.5000	0.000939027
1366.0000	0.000885643
1365.5000	0.000831588
1365.0000	0.000763344
1364.5000	0.000740293
1364.0000	0.000722506
1363.5000	0.000710425
1363.0000	0.000704457
1362.5000	0.000710831
1362.0000	0.000720958
1361.5000	0.000735278
1361.0000	0.000775299
1360.5000	0.000796783
1360.0000	0.000830477
1359.5000	0.000848287
1359.0000	0.000896134
1358.5000	0.000925471
1358.0000	0.000938884
1357.5000	0.000938594
1357.0000	0.000945732
1356.5000	0.000964537
1356.0000	0.000987348
1355.5000	0.000987446
1355.0000	0.000967454
1354.5000	0.000944184
1354.0000	0.000949934
1353.5000	0.000971359
1353.0000	0.00101852
1352.5000	0.00103421
1352.0000	0.00103025
1351.5000	0.00102119
1351.0000	0.00100987
1350.5000	0.00101477
1350.0000	0.00101083
1349.5000	0.000994499
1349.0000	0.000960756
1348.5000	0.000945017
1348.0000	0.000940011
1347.5000	0.000936525
1347.0000	0.000925394
1346.5000	0.000925156
1346.0000	0.000926703
1345.5000	0.000926308
1345.0000	0.000922138
1344.5000	0.000916255
1344.0000	0.000912853
1343.5000	0.000909679
1343.0000	0.000910672
1342.5000	0.000916294
1342.0000	0.000920682
1341.5000	0.000920086
1341.0000	0.000921735
1340.5000	0.000922737
1340.0000	0.000919459
1339.5000	0.000920518
1339.0000	0.00091983
1338.5000	0.000920996
1338.0000	0.000921182
1337.5000	0.000920389
1337.0000	0.000922978
1336.5000	0.000923678
1336.0000	0.000923055
1335.5000	0.000923059
1335.0000	0.000921367
1334.5000	0.000919854
1334.0000	0.000919189
1333.5000	0.000920552
1333.0000	0.000923497
1332.5000	0.000925412
1332.0000	0.000929172
1331.5000	0.000932542
1331.0000	0.000935573
1330.5000	0.000937114
1330.0000	0.000938384
1329.5000	0.00094115
1329.0000	0.000944411
1328.5000	0.000946439
1328.0000	0.000950671
1327.5000	0.000953126
1327.0000	0.000954069
1326.5000	0.000953695
1326.0000	0.000954577
1325.5000	0.000956277
1325.0000	0.00095789
1324.5000	0.000958823
1324.0000	0.000957915
1323.5000	0.000958833
1323.0000	0.000958503
1322.5000	0.000960052
1322.0000	0.000962077
1321.5000	0.000963033
1321.0000	0.00096512
1320.5000	0.000967746
1320.0000	0.000973831
1319.5000	0.000976896
1319.0000	0.00097779
1318.5000	0.00097807
1318.0000	0.000979474
1317.5000	0.000978919
1317.0000	0.000978678
1316.5000	0.000981825
1316.0000	0.000983158
1315.5000	0.000984319
1315.0000	0.000985438
1314.5000	0.000988798
1314.0000	0.0009922
1313.5000	0.000992933
1313.0000	0.000992917
1312.5000	0.000993434
1312.0000	0.000991773
1311.5000	0.000992892
1311.0000	0.000996565
1310.5000	0.00100019
1310.0000	0.00100145
1309.5000	0.00100226
1309.0000	0.00100588
1308.5000	0.00100608
1308.0000	0.00100097
1307.5000	0.000999563
1307.0000	0.000996968
1306.5000	0.00099939
1306.0000	0.00100093
1305.5000	0.00100367
1305.0000	0.00100833
1304.5000	0.00100916
1304.0000	0.00100452
1303.5000	0.0010068
1303.0000	0.00100689
1302.5000	0.00100761
1302.0000	0.00100721
1301.5000	0.00101128
1301.0000	0.00101496
1300.5000	0.00101677
1300.0000	0.00101464
1299.5000	0.00101513
1299.0000	0.00101584
1298.5000	0.0010145
1298.0000	0.00101569
1297.5000	0.00101715
1297.0000	0.00101675
1296.5000	0.00101423
1296.0000	0.00101399
1295.5000	0.00101651
1295.0000	0.00101526
1294.5000	0.00101627
1294.0000	0.00101857
1293.5000	0.00101858
1293.0000	0.00102031
1292.5000	0.00102052
1292.0000	0.0010253
1291.5000	0.00102652
1291.0000	0.0010302
1290.5000	0.00103427
1290.0000	0.00104033
1289.5000	0.00104458
1289.0000	0.00104257
1288.5000	0.00104368
1288.0000	0.00104362
1287.5000	0.00104488
1287.0000	0.00104536
1286.5000	0.00104718
1286.0000	0.00104692
1285.5000	0.00104656
1285.0000	0.00104596
1284.5000	0.0010499
1284.0000	0.00104814
1283.5000	0.00105067
1283.0000	0.00104952
1282.5000	0.00105235
1282.0000	0.00105371
1281.5000	0.00105586
1281.0000	0.00105698
1280.5000	0.00106279
1280.0000	0.00106366
1279.5000	0.00106532
1279.0000	0.00107165
1278.5000	0.00107356
1278.0000	0.00106973
1277.5000	0.00106943
1277.0000	0.00107223
1276.5000	0.00107595
1276.0000	0.00107849
1275.5000	0.0010805
1275.0000	0.00108043
1274.5000	0.00108247
1274.0000	0.00107962
1273.5000	0.00108327
1273.0000	0.00108478
1272.5000	0.00108688
1272.0000	0.00108668
1271.5000	0.00109297
1271.0000	0.00109532
1270.5000	0.00109594
1270.0000	0.00109411
1269.5000	0.00109383
1269.0000	0.00109556
1268.5000	0.00109821
1268.0000	0.00109998
1267.5000	0.00110321
1267.0000	0.00110277
1266.5000	0.00110331
1266.0000	0.00110046
1265.5000	0.00110262
1265.0000	0.00110149
1264.5000	0.00110261
1264.0000	0.00110508
1263.5000	0.00110735
1263.0000	0.00111241
1262.5000	0.001113
1262.0000	0.00111265
1261.5000	0.00111641
1261.0000	0.00111584
1260.5000	0.00111954
1260.0000	0.00112365
1259.5000	0.00112696
1259.0000	0.00113064
1258.5000	0.00113435
1258.0000	0.00113425
1257.5000	0.00113531
1257.0000	0.00113553
1256.5000	0.00113741
1256.0000	0.00113853
1255.5000	0.00113953
1255.0000	0.0011386
1254.5000	0.00114124
1254.0000	0.00113875
1253.5000	0.00113871
1253.0000	0.00113916
1252.5000	0.00114089
1252.0000	0.00114108
1251.5000	0.00114511
1251.0000	0.00114917
1250.5000	0.00115072
1250.0000	0.00114935
1249.5000	0.00115256
1249.0000	0.00115645
1248.5000	0.00115973
1248.0000	0.00115945
1247.5000	0.00116183
1247.0000	0.00116743
1246.5000	0.00116948
1246.0000	0.00117093
1245.5000	0.00117267
1245.0000	0.00117102
1244.5000	0.00117169
1244.0000	0.00117406
1243.5000	0.00117535
1243.0000	0.00117717
1242.5000	0.00117862
1242.0000	0.00118254
1241.5000	0.00118464
1241.0000	0.00118449
1240.5000	0.00118601
1240.0000	0.0011837
1239.5000	0.00118365
1239.0000	0.00118737
1238.5000	0.00119022
1238.0000	0.00119179
1237.5000	0.0011919
1237.0000	0.00119194
1236.5000	0.00118996
1236.0000	0.001188
1235.5000	0.00118827
1235.0000	0.00118961
1234.5000	0.00119218
1234.0000	0.00119561
1233.5000	0.00119939
1233.0000	0.00119903
1232.5000	0.00119877
1232.0000	0.00119803
1231.5000	0.00120009
1231.0000	0.00120552
1230.5000	0.00120923
1230.0000	0.00121363
1229.5000	0.00121509
1229.0000	0.00121955
1228.5000	0.00122201
1228.0000	0.00122643
1227.5000	0.00122585
1227.0000	0.00122765
1226.5000	0.00123115
1226.0000	0.00123592
1225.5000	0.00123839
1225.0000	0.00124044
1224.5000	0.00123747
1224.0000	0.00123834
1223.5000	0.00123995
1223.0000	0.00124481
1222.5000	0.00124536
1222.0000	0.00124833
1221.5000	0.00124714
1221.0000	0.00124801
1220.5000	0.00124813
1220.0000	0.00125176
1219.5000	0.00125091
1219.0000	0.00125149
1218.5000	0.00125449
1218.0000	0.00125971
1217.5000	0.00126223
1217.0000	0.00126491
1216.5000	0.00126513
1216.0000	0.00126368
1215.5000	0.00126214
1215.0000	0.00126591
1214.5000	0.00126834
1214.0000	0.00127272
1213.5000	0.00127495
1213.0000	0.00127749
1212.5000	0.00128006
1212.0000	0.00128143
1211.5000	0.00128132
1211.0000	0.0012842
1210.5000	0.00128306
1210.0000	0.00128589
1209.5000	0.0012878
1209.0000	0.00129202
1208.5000	0.00129152
1208.0000	0.00129312
1207.5000	0.00129125
1207.0000	0.00129243
1206.5000	0.00129417
1206.0000	0.00129766
1205.5000	0.00129785
1205.0000	0.00130104
1204.5000	0.00130344
1204.0000	0.00130394
1203.5000	0.00130112
1203.0000	0.00130477
1202.5000	0.0013062
1202.0000	0.00130868
1201.5000	0.00130841
1201.0000	0.0013154
1200.5000	0.00131394
1200.0000	0.00131012
1199.5000	0.00131234
1199.0000	0.00131459
1198.5000	0.00131591
1198.0000	0.00131722
1197.5000	0.00131785
1197.0000	0.00132237
1196.5000	0.00132345
1196.0000	0.00132564
1195.5000	0.00132826
1195.0000	0.00133302
1194.5000	0.00133651
1194.0000	0.00133595
1193.5000	0.00133824
1193.0000	0.00133931
1192.5000	0.00134229
1192.0000	0.00134746
1191.5000	0.00135157
1191.0000	0.00135357
1190.5000	0.00135594
1190.0000	0.0013581
1189.5000	0.00135944
1189.0000	0.00136033
1188.5000	0.0013603
1188.0000	0.00136143
1187.5000	0.00136928
1187.0000	0.00137509
1186.5000	0.00137782
1186.0000	0.00137962
1185.5000	0.00138271
1185.0000	0.00138404
1184.5000	0.0013857
1184.0000	0.00138688
1183.5000	0.00138821
1183.0000	0.00138871
1182.5000	0.00138905
1182.0000	0.00138776
1181.5000	0.00138717
1181.0000	0.00138489
1180.5000	0.00138644
1180.0000	0.0013864
1179.5000	0.00138832
1179.0000	0.00138861
1178.5000	0.00139051
1178.0000	0.00139259
1177.5000	0.00139801
1177.0000	0.00140073
1176.5000	0.00140476
1176.0000	0.00141321
1175.5000	0.00141399
1175.0000	0.00141689
1174.5000	0.00141985
1174.0000	0.00142347
1173.5000	0.0014248
1173.0000	0.00142693
1172.5000	0.00142913
1172.0000	0.00143079
1171.5000	0.00143447
1171.0000	0.00143675
1170.5000	0.00144048
1170.0000	0.00144522
1169.5000	0.00144627
1169.0000	0.00145165
1168.5000	0.00145318
1168.0000	0.0014542
1167.5000	0.00145428
1167.0000	0.00145808
1166.5000	0.00146046
1166.0000	0.00146569
1165.5000	0.00146591
1165.0000	0.00146438
1164.5000	0.00146407
1164.0000	0.00146369
1163.5000	0.00146312
1163.0000	0.00146562
1162.5000	0.00146895
1162.0000	0.00147452
1161.5000	0.00147575
1161.0000	0.00147847
1160.5000	0.00148299
1160.0000	0.00148284
1159.5000	0.00148228
1159.0000	0.00148814
1158.5000	0.00149076
1158.0000	0.00149316
1157.5000	0.00149403
1157.0000	0.00149839
1156.5000	0.00150078
1156.0000	0.00150147
1155.5000	0.00150184
1155.0000	0.00150671
1154.5000	0.00151246
1154.0000	0.00151643
1153.5000	0.00152071
1153.0000	0.00152299
1152.5000	0.00152354
1152.0000	0.0015258
1151.5000	0.00152842
1151.0000	0.00153301
1150.5000	0.00153408
1150.0000	0.00153708
1149.5000	0.00153875
1149.0000	0.00153893
1148.5000	0.00153912
1148.0000	0.00153431
1147.5000	0.0015343
1147.0000	0.00153926
1146.5000	0.00154247
1146.0000	0.0015465
1145.5000	0.00154892
1145.0000	0.00154864
1144.5000	0.00155153
1144.0000	0.00155411
1143.5000	0.00155552
1143.0000	0.00155949
1142.5000	0.0015625
1142.0000	0.00157084
1141.5000	0.00157479
1141.0000	0.00157853
1140.5000	0.0015764
1140.0000	0.00157466
1139.5000	0.00157519
1139.0000	0.00157729
1138.5000	0.00157751
1138.0000	0.00158259
1137.5000	0.001584
1137.0000	0.00158834
1136.5000	0.00159196
1136.0000	0.00159576
1135.5000	0.00159655
1135.0000	0.00159671
1134.5000	0.00159873
1134.0000	0.00160744
1133.5000	0.00161635
1133.0000	0.00162538
1132.5000	0.00162733
1132.0000	0.00163267
1131.5000	0.00163231
1131.0000	0.0016349
1130.5000	0.00163596
1130.0000	0.0016406
1129.5000	0.00164451
1129.0000	0.00165303
1128.5000	0.00166046
1128.0000	0.0016619
1127.5000	0.00166069
1127.0000	0.00166233
1126.5000	0.00166615
1126.0000	0.0016762
1125.5000	0.00167941
1125.0000	0.00168279
1124.5000	0.00168439
1124.0000	0.00168795
1123.5000	0.00168891
1123.0000	0.00168765
1122.5000	0.00168544
1122.0000	0.00168327
1121.5000	0.00168481
1121.0000	0.00168832
1120.5000	0.00168992
1120.0000	0.00169179
1119.5000	0.00168854
1119.0000	0.00169454
1118.5000	0.00169856
1118.0000	0.0017064
1117.5000	0.00170826
1117.0000	0.00171558
1116.5000	0.00172035
1116.0000	0.00172605
1115.5000	0.00173067
1115.0000	0.00173707
1114.5000	0.00174142
1114.0000	0.00174346
1113.5000	0.00174436
1113.0000	0.00175062
1112.5000	0.00175245
1112.0000	0.00175685
1111.5000	0.00175688
1111.0000	0.00175513
1110.5000	0.0017551
1110.0000	0.00175781
1109.5000	0.00176012
1109.0000	0.00176052
1108.5000	0.00176142
1108.0000	0.00176481
1107.5000	0.00176695
1107.0000	0.00177044
1106.5000	0.00177057
1106.0000	0.00177294
1105.5000	0.00177361
1105.0000	0.00178049
1104.5000	0.00178451
1104.0000	0.00178825
1103.5000	0.00178787
1103.0000	0.001791
1102.5000	0.00179398
1102.0000	0.00179643
1101.5000	0.00179744
1101.0000	0.00180178
1100.5000	0.00180573
1100.0000	0.00181033
1099.5000	0.0018129
1099.0000	0.00181517
1098.5000	0.00181845
1098.0000	0.0018214
1097.5000	0.00182541
1097.0000	0.00183294
1096.5000	0.00183676
1096.0000	0.00184376
1095.5000	0.00184888
1095.0000	0.00185726
1094.5000	0.00185862
1094.0000	0.00185813
1093.5000	0.00186059
1093.0000	0.00186871
1092.5000	0.001873
1092.0000	0.00187563
1091.5000	0.00187769
1091.0000	0.00187825
1090.5000	0.00187904
1090.0000	0.00187958
1089.5000	0.00188069
1089.0000	0.00188068
1088.5000	0.00188183
1088.0000	0.00188606
1087.5000	0.00189041
1087.0000	0.00189594
1086.5000	0.00189674
1086.0000	0.00190136
1085.5000	0.00190691
1085.0000	0.00191623
1084.5000	0.00192162
1084.0000	0.00192971
1083.5000	0.0019364
1083.0000	0.00194067
1082.5000	0.00194418
1082.0000	0.00195053
1081.5000	0.00195521
1081.0000	0.00195632
1080.5000	0.00195972
1080.0000	0.00196036
1079.5000	0.00196219
1079.0000	0.00196397
1078.5000	0.00196368
1078.0000	0.00196788
1077.5000	0.00196911
1077.0000	0.0019705
1076.5000	0.0019746
1076.0000	0.00197844
1075.5000	0.00198056
1075.0000	0.00198321
1074.5000	0.0019879
1074.0000	0.00199283
1073.5000	0.00199751
1073.0000	0.0020022
1072.5000	0.00200694
1072.0000	0.00201237
1071.5000	0.00201503
1071.0000	0.00201895
1070.5000	0.00202504
1070.0000	0.00202896
1069.5000	0.00203139
1069.0000	0.00203525
1068.5000	0.00203997
1068.0000	0.00204273
1067.5000	0.00204444
1067.0000	0.00204663
1066.5000	0.00204641
1066.0000	0.00204879
1065.5000	0.00205457
1065.0000	0.00206037
1064.5000	0.00206618
1064.0000	0.00206964
1063.5000	0.00207372
1063.0000	0.00208229
1062.5000	0.00208701
1062.0000	0.00209086
1061.5000	0.00209591
1061.0000	0.00210523
1060.5000	0.00211124
1060.0000	0.00211838
1059.5000	0.00212248
1059.0000	0.00212306
1058.5000	0.00212591
1058.0000	0.00212912
1057.5000	0.00213335
1057.0000	0.00213828
1056.5000	0.00214173
1056.0000	0.00214615
1055.5000	0.00215023
1055.0000	0.00215299
1054.5000	0.00215265
1054.0000	0.00215362
1053.5000	0.00215671
1053.0000	0.00215993
1052.5000	0.00216107
1052.0000	0.00216268
1051.5000	0.00216602
1051.0000	0.00216922
1050.5000	0.0021712
1050.0000	0.00217469
1049.5000	0.00218079
1049.0000	0.00218627
1048.5000	0.00219124
1048.0000	0.00219799
1047.5000	0.00220314
1047.0000	0.00221216
1046.5000	0.00221735
1046.0000	0.0022267
1045.5000	0.00223133
1045.0000	0.00223738
1044.5000	0.00224338
1044.0000	0.00224811
1043.5000	0.0022526
1043.0000	0.0022573
1042.5000	0.00226256
1042.0000	0.00226926
1041.5000	0.00227239
1041.0000	0.00227226
1040.5000	0.00227438
1040.0000	0.00228232
1039.5000	0.00228664
1039.0000	0.00229231
1038.5000	0.00229617
1038.0000	0.00229805
1037.5000	0.00230069
1037.0000	0.00230173
1036.5000	0.0023051
1036.0000	0.00230788
1035.5000	0.00231261
1035.0000	0.00231622
1034.5000	0.00232314
1034.0000	0.00233068
1033.5000	0.00233365
1033.0000	0.00233748
1032.5000	0.00234014
1032.0000	0.00234779
1031.5000	0.00235123
1031.0000	0.00235743
1030.5000	0.00236397
1030.0000	0.00237102
1029.5000	0.00237357
1029.0000	0.00237413
1028.5000	0.00237798
1028.0000	0.00238376
1027.5000	0.0023869
1027.0000	0.00239236
1026.5000	0.00239709
1026.0000	0.00240311
1025.5000	0.00240565
1025.0000	0.0024141
1024.5000	0.00241838
1024.0000	0.00242427
1023.5000	0.00242742
1023.0000	0.00243603
1022.5000	0.00244249
1022.0000	0.00245058
1021.5000	0.00245439
1021.0000	0.00246225
1020.5000	0.00246608
1020.0000	0.00246919
1019.5000	0.00247153
1019.0000	0.0024751
1018.5000	0.00247776
1018.0000	0.00248152
1017.5000	0.00248509
1017.0000	0.00249146
1016.5000	0.00249413
1016.0000	0.00250066
1015.5000	0.00250566
1015.0000	0.0025096
1014.5000	0.00251343
1014.0000	0.00251831
1013.5000	0.00252462
1013.0000	0.00253195
1012.5000	0.00253891
1012.0000	0.00254701
1011.5000	0.00255406
1011.0000	0.00255994
1010.5000	0.0025625
1010.0000	0.0025707
1009.5000	0.00257532
1009.0000	0.00258111
1008.5000	0.00258595
1008.0000	0.00259447
1007.5000	0.00260101
1007.0000	0.00260495
1006.5000	0.00261195
1006.0000	0.00262049
1005.5000	0.00262679
1005.0000	0.00263367
1004.5000	0.00264144
1004.0000	0.00264998
1003.5000	0.00265642
1003.0000	0.00266305
1002.5000	0.00266798
1002.0000	0.00267791
1001.5000	0.00268324
1001.0000	0.00269037
1000.5000	0.0026994
1000.0000	0.00270327
999.5000	0.00271053
999.0000	0.00271374
998.5000	0.00271602
998.0000	0.00272012
997.5000	0.00272364
997.0000	0.00273313
996.5000	0.00273902
996.0000	0.00274773
995.5000	0.00274939
995.0000	0.00275432
994.5000	0.00276031
994.0000	0.00276463
993.5000	0.00276817
993.0000	0.00276992
992.5000	0.00277566
992.0000	0.00277979
991.5000	0.00278272
991.0000	0.00278811
990.5000	0.00279043
990.0000	0.0027944
989.5000	0.00279968
989.0000	0.0028066
988.5000	0.00281214
988.0000	0.00281817
987.5000	0.00282531
987.0000	0.00283749
986.5000	0.002846
986.0000	0.0028572
985.5000	0.00286774
985.0000	0.00288023
984.5000	0.00288737
984.0000	0.00289691
983.5000	0.0029048
983.0000	0.00291197
982.5000	0.00291835
982.0000	0.00292758
981.5000	0.00293171
981.0000	0.00293833
980.5000	0.00294386
980.0000	0.00295115
979.5000	0.0029552
979.0000	0.00295685
978.5000	0.00296309
978.0000	0.00297117
977.5000	0.00297494
977.0000	0.00298493
976.5000	0.00299269
976.0000	0.00300027
975.5000	0.00300558
975.0000	0.00301503
974.5000	0.00302203
974.0000	0.00302906
973.5000	0.00303585
973.0000	0.00304609
972.5000	0.00305401
972.0000	0.00306702
971.5000	0.00307135
971.0000	0.00308076
970.5000	0.00308673
970.0000	0.00309183
969.5000	0.00309657
969.0000	0.00310577
968.5000	0.003112
968.0000	0.00312372
967.5000	0.00313533
967.0000	0.00314501
966.5000	0.00315278
966.0000	0.00316162
965.5000	0.00316686
965.0000	0.00317904
964.5000	0.00318529
964.0000	0.00319656
963.5000	0.00320612
963.0000	0.00322033
962.5000	0.00322589
962.0000	0.00323644
961.5000	0.00323995
961.0000	0.00324803
960.5000	0.00325546
960.0000	0.00326376
959.5000	0.00326734
959.0000	0.00327545
958.5000	0.00328556
958.0000	0.0032948
957.5000	0.0033042
957.0000	0.00331569
956.5000	0.00332528
956.0000	0.00333745
955.5000	0.00334504
955.0000	0.00335663
954.5000	0.00335985
954.0000	0.00336989
953.5000	0.00337451
953.0000	0.0033882
952.5000	0.0033962
952.0000	0.00340781
951.5000	0.00341638
951.0000	0.00342449
950.5000	0.00343429
950.0000	0.00344241
949.5000	0.00345369
949.0000	0.00346697
948.5000	0.00347422
948.0000	0.00349211
947.5000	0.00350425
947.0000	0.00352378
946.5000	0.00353489
946.0000	0.00354516
945.5000	0.00355292
945.0000	0.00356349
944.5000	0.00357209
944.0000	0.00358036
943.5000	0.00359101
943.0000	0.00359718
942.5000	0.00360337
942.0000	0.00361708
941.5000	0.00362305
941.0000	0.00363041
940.5000	0.00363637
940.0000	0.00364676
939.5000	0.00366215
939.0000	0.00367489
938.5000	0.00368932
938.0000	0.00370443
937.5000	0.00371169
937.0000	0.00372946
936.5000	0.00374294
936.0000	0.00376583
935.5000	0.00377576
935.0000	0.00379272
934.5000	0.00380467
934.0000	0.0038214
933.5000	0.00383225
933.0000	0.00383982
932.5000	0.00385372
932.0000	0.00386499
931.5000	0.00387731
931.0000	0.00389423
930.5000	0.00390733
930.0000	0.00392383
929.5000	0.00393416
929.0000	0.00394655
928.5000	0.00395818
928.0000	0.00397716
927.5000	0.00398871
927.0000	0.00400762
926.5000	0.00401983
926.0000	0.00403432
925.5000	0.00404208
925.0000	0.00405835
924.5000	0.0040722
924.0000	0.00408577
923.5000	0.00409606
923.0000	0.00411157
922.5000	0.00412039
922.0000	0.00413892
921.5000	0.00414911
921.0000	0.00416755
920.5000	0.00418299
920.0000	0.00420111
919.5000	0.00421551
919.0000	0.00423783
918.5000	0.00425137
918.0000	0.00426805
917.5000	0.00428266
917.0000	0.00430508
916.5000	0.00432279
916.0000	0.00434945
915.5000	0.00436857
915.0000	0.00439224
914.5000	0.00440638
914.0000	0.0044297
913.5000	0.00444826
913.0000	0.00446733
912.5000	0.00448739
912.0000	0.00450973
911.5000	0.00453175
911.0000	0.00455577
910.5000	0.00457415
910.0000	0.00460037
909.5000	0.00461831
909.0000	0.00463857
908.5000	0.00465598
908.0000	0.00468376
907.5000	0.00470442
907.0000	0.00472904
906.5000	0.00474913
906.0000	0.0047722
905.5000	0.00479141
905.0000	0.00481648
904.5000	0.00483773
904.0000	0.004863
903.5000	0.00488429
903.0000	0.00491069
902.5000	0.00493395
902.0000	0.00496742
901.5000	0.00499151
901.0000	0.00502463
900.5000	0.00504445
900.0000	0.00507824
899.5000	0.0051034
899.0000	0.00513345
898.5000	0.00515835
898.0000	0.00519315
897.5000	0.005215
897.0000	0.0052417
896.5000	0.0052664
896.0000	0.00529592
895.5000	0.00531777
895.0000	0.00535395
894.5000	0.00537415
894.0000	0.00540936
893.5000	0.0054329
893.0000	0.00547089
892.5000	0.00549915
892.0000	0.00553568
891.5000	0.00556377
891.0000	0.00560476
890.5000	0.00563381
890.0000	0.00568166
889.5000	0.00571035
889.0000	0.00575531
888.5000	0.00578564
888.0000	0.00583643
887.5000	0.00587401
887.0000	0.00592351
886.5000	0.00594464
886.0000	0.00599726
885.5000	0.00603333
885.0000	0.00608149
884.5000	0.00611634
884.0000	0.00617037
883.5000	0.00620645
883.0000	0.00626053
882.5000	0.00630017
882.0000	0.00635363
881.5000	0.00638765
881.0000	0.00644569
880.5000	0.00648843
880.0000	0.00655519
879.5000	0.00659456
879.0000	0.00665881
878.5000	0.00670746
878.0000	0.00677787
877.5000	0.0068264
877.0000	0.00689836
876.5000	0.0069494
876.0000	0.00702421
875.5000	0.00707115
875.0000	0.00714566
874.5000	0.00719696
874.0000	0.00727366
873.5000	0.00732841
873.0000	0.00740682
872.5000	0.00746121
872.0000	0.0075369
871.5000	0.00759579
871.0000	0.00768155
870.5000	0.00774497
870.0000	0.00783394
869.5000	0.00789546
869.0000	0.00799206
868.5000	0.00806842
868.0000	0.00816067
867.5000	0.00822914
867.0000	0.00833431
866.5000	0.00840178
866.0000	0.00850136
865.5000	0.00857365
865.0000	0.00868278
864.5000	0.00875943
864.0000	0.00886982
863.5000	0.00894642
863.0000	0.0090731
862.5000	0.00915443
862.0000	0.00927683
861.5000	0.00936502
861.0000	0.00949671
860.5000	0.00958457
860.0000	0.00972018
859.5000	0.00981536
859.0000	0.00996218
858.5000	0.0100639
858.0000	0.0102125
857.5000	0.0103159
857.0000	0.0104675
856.5000	0.0105704
856.0000	0.0107211
855.5000	0.0108219
855.0000	0.0109804
854.5000	0.0110834
854.0000	0.0112426
853.5000	0.0113523
853.0000	0.0115224
852.5000	0.0116453
852.0000	0.0118088
851.5000	0.0119346
851.0000	0.0121088
850.5000	0.0122362
850.0000	0.011182
849.5000	0.0112692
849.0000	0.0114644
848.5000	0.011588
848.0000	0.0118117
847.5000	0.0119223
847.0000	0.0121006
846.5000	0.0122444
846.0000	0.0124694
845.5000	0.0125765
845.0000	0.0127756
844.5000	0.0129095
844.0000	0.0131686
843.5000	0.0132751
843.0000	0.0134854
842.5000	0.0136538
842.0000	0.0138548
841.5000	0.0139796
841.0000	0.0142396
840.5000	0.0144126
840.0000	0.0146528
839.5000	0.0148222
839.0000	0.0151029
838.5000	0.0152852
838.0000	0.0155843
837.5000	0.015765
837.0000	0.0160666
836.5000	0.0162317
836.0000	0.0164901
835.5000	0.0167031
835.0000	0.0170239
834.5000	0.0172082
834.0000	0.0175006
833.5000	0.0177129
833.0000	0.0180189
832.5000	0.0182117
832.0000	0.0185328
831.5000	0.0187255
831.0000	0.0190275
830.5000	0.0192439
830.0000	0.0195942
829.5000	0.0198281
829.0000	0.0201655
828.5000	0.0203693
828.0000	0.0207289
827.5000	0.0209743
827.0000	0.0213049
826.5000	0.0215098
826.0000	0.0218462
825.5000	0.022078
825.0000	0.0224133
824.5000	0.0227053
824.0000	0.0230248
823.5000	0.023276
823.0000	0.0236236
822.5000	0.0238564
822.0000	0.0242563
821.5000	0.0245077
821.0000	0.0248803
820.5000	0.0251262
820.0000	0.02552
819.5000	0.0257857
819.0000	0.0261667
818.5000	0.0264116
818.0000	0.0267752
817.5000	0.027038
817.0000	0.0274018
816.5000	0.0276964
816.0000	0.0280742
815.5000	0.028324
815.0000	0.028713
814.5000	0.0289833
814.0000	0.0293975
813.5000	0.0296728
813.0000	0.0301032
812.5000	0.0303906
812.0000	0.0308162
811.5000	0.0310955
811.0000	0.0314747
810.5000	0.0317703
810.0000	0.0321847
809.5000	0.0325101
809.0000	0.0329333
808.5000	0.0332285
808.0000	0.0336233
807.5000	0.0338924
807.0000	0.0342992
806.5000	0.0345697
806.0000	0.0349885
805.5000	0.0352684
805.0000	0.0357007
804.5000	0.0359878
804.0000	0.0363788
803.5000	0.0366225
803.0000	0.0369819
802.5000	0.0372716
802.0000	0.0376959
801.5000	0.037984
801.0000	0.0384082
800.5000	0.0386733
800.0000	0.0390823
799.5000	0.0393666
799.0000	0.0397991
798.5000	0.0400759
798.0000	0.0405385
797.5000	0.0407944
797.0000	0.0412241
796.5000	0.0415108
796.0000	0.0418916
795.5000	0.0421578
795.0000	0.0425852
794.5000	0.0428784
794.0000	0.0432909
793.5000	0.0435675
793.0000	0.043973
792.5000	0.0442462
792.0000	0.0446364
791.5000	0.044871
791.0000	0.045286
790.5000	0.0455371
790.0000	0.0459418
789.5000	0.0462285
789.0000	0.046604
788.5000	0.0468543
788.0000	0.047256
787.5000	0.0475064
787.0000	0.0478625
786.5000	0.0481023
786.0000	0.0484719
785.5000	0.0487235
785.0000	0.0490941
784.5000	0.0493559
784.0000	0.0497435
783.5000	0.0499595
783.0000	0.0502828
782.5000	0.0505131
782.0000	0.0508482
781.5000	0.0510591
781.0000	0.051391
780.5000	0.0516289
780.0000	0.0519289
779.5000	0.0521485
779.0000	0.0524658
778.5000	0.0526831
778.0000	0.052997
777.5000	0.0532294
777.0000	0.0535686
776.5000	0.053791
776.0000	0.0541164
775.5000	0.0543129
775.0000	0.0546405
774.5000	0.0548543
774.0000	0.0551493
773.5000	0.0553767
773.0000	0.0556641
772.5000	0.0558765
772.0000	0.0561727
771.5000	0.0563656
771.0000	0.0566203
770.5000	0.0568128
770.0000	0.0571067
769.5000	0.0572881
769.0000	0.0575361
768.5000	0.0577019
768.0000	0.0579883
767.5000	0.0581609
767.0000	0.0584184
766.5000	0.0586235
766.0000	0.0589068
765.5000	0.0590768
765.0000	0.059352
764.5000	0.0595228
764.0000	0.0597895
763.5000	0.0599746
763.0000	0.0602517
762.5000	0.0604636
762.0000	0.0607275
761.5000	0.0609075
761.0000	0.0611629
760.5000	0.0613407
760.0000	0.0616013
759.5000	0.0617892
759.0000	0.0620154
758.5000	0.0621968
758.0000	0.0624783
757.5000	0.0626456
757.0000	0.0628791
756.5000	0.0630504
756.0000	0.0633153
755.5000	0.0634761
755.0000	0.0637451
754.5000	0.0639221
754.0000	0.0641792
753.5000	0.0643421
753.0000	0.0646251
752.5000	0.0648013
752.0000	0.0650853
751.5000	0.0652443
751.0000	0.0654975
750.5000	0.0657085
750.0000	0.0659718
749.5000	0.066156
749.0000	0.0664517
748.5000	0.066617
748.0000	0.0668971
747.5000	0.0670905
747.0000	0.0673416
746.5000	0.0675229
746.0000	0.0678168
745.5000	0.0680025
745.0000	0.0682882
744.5000	0.0684815
744.0000	0.0687156
743.5000	0.0689157
743.0000	0.0691635
742.5000	0.0693285
742.0000	0.0696037
741.5000	0.0697798
741.0000	0.0700292
740.5000	0.0702092
740.0000	0.0705049
739.5000	0.0706658
739.0000	0.0709382
738.5000	0.0710797
738.0000	0.0713286
737.5000	0.0714973
737.0000	0.0717691
736.5000	0.0719238
736.0000	0.0721802
735.5000	0.0723329
735.0000	0.0725571
734.5000	0.0727196
734.0000	0.0729983
733.5000	0.0731517
733.0000	0.073408
732.5000	0.0735686
732.0000	0.0738234
731.5000	0.0739918
731.0000	0.0742196
730.5000	0.0743683
730.0000	0.0746113
729.5000	0.0747726
729.0000	0.0750161
728.5000	0.0751777
728.0000	0.0754012
727.5000	0.075574
727.0000	0.0758128
726.5000	0.0759789
726.0000	0.0762146
725.5000	0.0763857
725.0000	0.0765872
724.5000	0.0767259
724.0000	0.0769285
723.5000	0.0770659
723.0000	0.0772476
722.5000	0.0773438
722.0000	0.0775347
721.5000	0.0776471
721.0000	0.0777957
720.5000	0.0779036
720.0000	0.0780237
719.5000	0.0781374
719.0000	0.0782666
718.5000	0.0783828
718.0000	0.0785366
717.5000	0.0786411
717.0000	0.0788027
716.5000	0.0788905
716.0000	0.0790413
715.5000	0.0791143
715.0000	0.0792555
714.5000	0.0793276
714.0000	0.0794469
713.5000	0.079517
713.0000	0.0795926
712.5000	0.0796652
712.0000	0.0797312
711.5000	0.0797711
711.0000	0.0798298
710.5000	0.0798697
710.0000	0.0799536
709.5000	0.0799882
709.0000	0.0800571
708.5000	0.0800762
708.0000	0.0801131
707.5000	0.0801168
707.0000	0.0801706
706.5000	0.0801761
706.0000	0.0801736
705.5000	0.0801796
705.0000	0.0801717
704.5000	0.0801761
704.0000	0.0801415
703.5000	0.0801128
703.0000	0.0800537
702.5000	0.0800196
702.0000	0.0799739
701.5000	0.0799562
701.0000	0.0799262
700.5000	0.0798787
700.0000	0.0798212
699.5000	0.0797752
699.0000	0.0797285
698.5000	0.0796746
698.0000	0.0795768
697.5000	0.0795311
697.0000	0.0794567
696.5000	0.0794043
696.0000	0.0793025
695.5000	0.0792571
695.0000	0.079159
694.5000	0.0790593
694.0000	0.078958
693.5000	0.0788738
693.0000	0.0787502
692.5000	0.0786596
692.0000	0.078559
691.5000	0.0784594
691.0000	0.0783332
690.5000	0.078224
690.0000	0.0780601
689.5000	0.0779693
689.0000	0.0777816
688.5000	0.0776652
688.0000	0.0774771
687.5000	0.0773513
687.0000	0.0771187
686.5000	0.0769802
686.0000	0.0767137
685.5000	0.0765058
685.0000	0.076214
684.5000	0.0759972
684.0000	0.0756798
683.5000	0.0754676
683.0000	0.0751068
682.5000	0.0748435
682.0000	0.0744701
681.5000	0.0742542
681.0000	0.0739061
680.5000	0.0736897
680.0000	0.0733947
679.5000	0.0731955
679.0000	0.0729305
678.5000	0.0727493
678.0000	0.0724696
677.5000	0.072315
677.0000	0.0720802
676.5000	0.0719306
676.0000	0.0717309
675.5000	0.071579
675.0000	0.0713321
674.5000	0.0711799
674.0000	0.0709108
673.5000	0.0707441
673.0000	0.0705004
672.5000	0.070328
672.0000	0.070089
671.5000	0.0699211
671.0000	0.0696715
670.5000	0.0694941
670.0000	0.0692303
669.5000	0.0690909
669.0000	0.0688391
668.5000	0.0686476
668.0000	0.0684064
667.5000	0.0682468
667.0000	0.0679864
666.5000	0.0678007
666.0000	0.0675371
665.5000	0.0673539
665.0000	0.0670954
664.5000	0.0669052
664.0000	0.0666592
663.5000	0.0664899
663.0000	0.0662274
662.5000	0.0660381
662.0000	0.0657741
661.5000	0.0655914
661.0000	0.0653369
660.5000	0.065166
660.0000	0.0649152
659.5000	0.0647366
659.0000	0.0644728
658.5000	0.0642868
658.0000	0.0640223
657.5000	0.0638425
657.0000	0.0635541
656.5000	0.0633632
656.0000	0.0630988
655.5000	0.0629104
655.0000	0.0626358
654.5000	0.0624523
654.0000	0.0621844
653.5000	0.0620129
653.0000	0.0617457
652.5000	0.0615533
652.0000	0.0612722
651.5000	0.0610878
651.0000	0.0607962
650.5000	0.0606296
650.0000	0.0603739
649.5000	0.0601857
649.0000	0.0599233
648.5000	0.0597326
648.0000	0.0594569
647.5000	0.0592714
647.0000	0.0590016
646.5000	0.0588141
646.0000	0.0585471
645.5000	0.0583827
645.0000	0.0581032
644.5000	0.0579199
644.0000	0.0576209
643.5000	0.0574244
643.0000	0.0571467
642.5000	0.0569513
642.0000	0.0566525
641.5000	0.0564602
641.0000	0.0561727
640.5000	0.0559719
640.0000	0.0556775
639.5000	0.0554779
639.0000	0.0551958
638.5000	0.0549913
638.0000	0.0547111
637.5000	0.0545289
637.0000	0.0542366
636.5000	0.0540486
636.0000	0.0537865
635.5000	0.0536039
635.0000	0.0533065
634.5000	0.0531201
634.0000	0.0528397
633.5000	0.0526479
633.0000	0.0523706
632.5000	0.0521578
632.0000	0.0518709
631.5000	0.0516778
631.0000	0.0513808
630.5000	0.0511879
630.0000	0.0508845
629.5000	0.0506864
629.0000	0.0503866
628.5000	0.0501926
628.0000	0.0499063
627.5000	0.0497161
627.0000	0.0494135
626.5000	0.0492078
626.0000	0.0489363
625.5000	0.0487492
625.0000	0.0484644
624.5000	0.048272
624.0000	0.047985
623.5000	0.0477931
623.0000	0.0475099
622.5000	0.0473192
622.0000	0.0470332
621.5000	0.0468426
621.0000	0.0465601
620.5000	0.0463605
620.0000	0.0461031
619.5000	0.0459262
619.0000	0.0456578
618.5000	0.0454617
618.0000	0.0451732
617.5000	0.0449688
617.0000	0.0446795
616.5000	0.0444881
616.0000	0.044195
615.5000	0.0440209
615.0000	0.0437366
614.5000	0.0435573
614.0000	0.0433031
613.5000	0.0431228
613.0000	0.0428402
612.5000	0.0426702
612.0000	0.042403
611.5000	0.0422166
611.0000	0.041968
610.5000	0.0418042
610.0000	0.0415414
609.5000	0.041379
609.0000	0.0410972
608.5000	0.0409373
608.0000	0.0406942
607.5000	0.0405131
607.0000	0.0402596
606.5000	0.0400765
606.0000	0.0397923
605.5000	0.0396226
605.0000	0.0393635
604.5000	0.0391759
604.0000	0.0389165
603.5000	0.0387427
603.0000	0.038488
602.5000	0.0383228
602.0000	0.0380599
601.5000	0.0378758
601.0000	0.0376456
600.5000	0.0374931
600.0000	0.0372527
599.5000	0.0370947
599.0000	0.0368564
598.5000	0.0367042
598.0000	0.0364633
597.5000	0.0362965
597.0000	0.0360578
596.5000	0.0359037
596.0000	0.0356732
595.5000	0.0355099
595.0000	0.0352769
594.5000	0.0351186
594.0000	0.034869
593.5000	0.0347286
593.0000	0.0345185
592.5000	0.0343586
592.0000	0.0341205
591.5000	0.0339613
591.0000	0.0337387
590.5000	0.0335892
590.0000	0.0333765
589.5000	0.0332222
589.0000	0.0329973
588.5000	0.0328435
588.0000	0.0326093
587.5000	0.0324644
587.0000	0.0322339
586.5000	0.0320873
586.0000	0.0318841
585.5000	0.0317615
585.0000	0.03155
584.5000	0.0314272
584.0000	0.0312149
583.5000	0.0310452
583.0000	0.0308138
582.5000	0.0306735
582.0000	0.0304797
581.5000	0.0303389
581.0000	0.0301279
580.5000	0.0299832
580.0000	0.0297826
579.5000	0.029634
579.0000	0.0294381
578.5000	0.0292961
578.0000	0.0290909
577.5000	0.0289556
577.0000	0.0287692
576.5000	0.0286346
576.0000	0.0284281
575.5000	0.0282863
575.0000	0.0281008
574.5000	0.0279644
574.0000	0.0277919
573.5000	0.0276487
573.0000	0.0274388
572.5000	0.0273166
572.0000	0.0271032
571.5000	0.0269765
571.0000	0.0267761
570.5000	0.0266729
570.0000	0.0264839
569.5000	0.0263779
569.0000	0.0261996
568.5000	0.0260601
568.0000	0.0258769
567.5000	0.0257388
567.0000	0.0255703
566.5000	0.0254537
566.0000	0.0252628
565.5000	0.0251504
565.0000	0.0249565
564.5000	0.0248378
564.0000	0.0246461
563.5000	0.0245297
563.0000	0.024355
562.5000	0.024219
562.0000	0.0240655
561.5000	0.023957
561.0000	0.0237917
560.5000	0.023682
560.0000	0.023491
559.5000	0.0233752
559.0000	0.0232034
558.5000	0.0231147
558.0000	0.022943
557.5000	0.022829
557.0000	0.0226555
556.5000	0.0225411
556.0000	0.0223805
555.5000	0.0222655
555.0000	0.0220911
554.5000	0.0219777
554.0000	0.0218144
553.5000	0.0217158
553.0000	0.0215568
552.5000	0.0214649
552.0000	0.0213139
551.5000	0.0212032
551.0000	0.0210467
550.5000	0.0209546
550.0000	0.0207942
549.5000	0.0206823
549.0000	0.0205306
548.5000	0.0204259
548.0000	0.020275
547.5000	0.0201695
547.0000	0.0200346
546.5000	0.0199265
546.0000	0.0197574
545.5000	0.0196396
545.0000	0.0195007
544.5000	0.0194064
544.0000	0.0192526
543.5000	0.0191629
543.0000	0.01902
542.5000	0.0189296
542.0000	0.0187775
541.5000	0.0186872
541.0000	0.0185371
540.5000	0.0184331
540.0000	0.0183167
539.5000	0.0182257
539.0000	0.0180932
538.5000	0.0179937
538.0000	0.0178571
537.5000	0.017779
537.0000	0.0176312
536.5000	0.0175366
536.0000	0.0173761
535.5000	0.0172983
535.0000	0.017172
534.5000	0.0170948
534.0000	0.016972
533.5000	0.0168751
533.0000	0.0167368
532.5000	0.0166638
532.0000	0.016524
531.5000	0.0164489
531.0000	0.0163318
530.5000	0.0162514
530.0000	0.0161582
529.5000	0.016102
529.0000	0.0159767
528.5000	0.0158955
528.0000	0.0157674
527.5000	0.0156875
527.0000	0.0155871
526.5000	0.0155045
526.0000	0.0153797
525.5000	0.0153126
525.0000	0.0152009
524.5000	0.0151086
524.0000	0.0149919
523.5000	0.0149302
523.0000	0.0148096
522.5000	0.0147269
522.0000	0.0146089
521.5000	0.0145346
521.0000	0.0144298
520.5000	0.0143415
520.0000	0.0142446
519.5000	0.0141785
519.0000	0.0140744
518.5000	0.0140065
518.0000	0.0138832
517.5000	0.0138257
517.0000	0.0136947
516.5000	0.0136294
516.0000	0.0135415
515.5000	0.0134871
515.0000	0.0133977
514.5000	0.0133532
514.0000	0.0132678
513.5000	0.0131992
513.0000	0.0131037
512.5000	0.0130462
512.0000	0.0129765
511.5000	0.0129248
511.0000	0.0128329
510.5000	0.012777
510.0000	0.0127102
509.5000	0.0126695
509.0000	0.0126019
508.5000	0.0125535
508.0000	0.0124695
507.5000	0.012422
507.0000	0.0123588
506.5000	0.0122971
506.0000	0.0122255
505.5000	0.0121678
505.0000	0.0120872
504.5000	0.0120415
504.0000	0.011981
503.5000	0.0119447
503.0000	0.0118642
502.5000	0.0118201
502.0000	0.0117491
501.5000	0.0117018
501.0000	0.0116539
500.5000	0.0116258
500.0000	0.0115819
499.5000	0.0115436
499.0000	0.0115067
498.5000	0.0114962
498.0000	0.0114431
497.5000	0.0113929
497.0000	0.0113396
496.5000	0.0113051
496.0000	0.0112508
495.5000	0.0112506
495.0000	0.0112105
494.5000	0.0111635
494.0000	0.0111243
493.5000	0.0111028
493.0000	0.0110686
492.5000	0.0110597
492.0000	0.0110091
491.5000	0.0109863
491.0000	0.0109702
490.5000	0.0109849
490.0000	0.0109621
489.5000	0.0109513
489.0000	0.0109211
488.5000	0.0108995
488.0000	0.0109172
487.5000	0.0108947
487.0000	0.0108859
486.5000	0.0108742
486.0000	0.0108778
485.5000	0.0108815
485.0000	0.0108934
484.5000	0.0108963
484.0000	0.0108967
483.5000	0.0108924
483.0000	0.0108999
482.5000	0.0109161
482.0000	0.0109409
481.5000	0.0109366
481.0000	0.0109568
480.5000	0.010951
480.0000	0.0109654
479.5000	0.0109574
479.0000	0.0109871
478.5000	0.0110022
478.0000	0.0110303
477.5000	0.0110464
477.0000	0.0110967
476.5000	0.0111165
476.0000	0.0111346
475.5000	0.0111666
475.0000	0.0111921
474.5000	0.0112192
474.0000	0.0112653
473.5000	0.0113171
473.0000	0.0113653
472.5000	0.0113792
472.0000	0.0114407
471.5000	0.011474
471.0000	0.0115291
470.5000	0.0115876
470.0000	0.0116526
469.5000	0.0117122
469.0000	0.0117742
468.5000	0.0118438
468.0000	0.0119213
467.5000	0.0119826
467.0000	0.0120422
466.5000	0.0121106
466.0000	0.0121938
465.5000	0.0122438
465.0000	0.0123461
464.5000	0.01242
464.0000	0.0125367
463.5000	0.0125803
463.0000	0.0126767
462.5000	0.0127501
462.0000	0.0128725
461.5000	0.0129639
461.0000	0.0131141
460.5000	0.0132099
460.0000	0.0133439
459.5000	0.0134592
459.0000	0.0135999
458.5000	0.0137144
458.0000	0.0138815
457.5000	0.0139878
457.0000	0.0141984
456.5000	0.0143007
456.0000	0.0144977
455.5000	0.0146488
455.0000	0.0148462
454.5000	0.0149923
454.0000	0.0152393
453.5000	0.0154114
453.0000	0.0156934
452.5000	0.0158862
452.0000	0.0161492
451.5000	0.0163502
451.0000	0.0166512
450.5000	0.0168811
450.0000	0.0173014
449.5000	0.0175372
449.0000	0.0179338
448.5000	0.0181941
448.0000	0.0186272
447.5000	0.0189141
447.0000	0.0193602
446.5000	0.0196818
446.0000	0.0201828
445.5000	0.0204835
445.0000	0.0209999
444.5000	0.0213808
444.0000	0.0219618
443.5000	0.0223475
443.0000	0.022943
442.5000	0.0233656
442.0000	0.0240258
441.5000	0.0244747
441.0000	0.025173
440.5000	0.0256751
440.0000	0.0264248
439.5000	0.0269336
439.0000	0.0277709
438.5000	0.0283245
438.0000	0.0291719
437.5000	0.029776
437.0000	0.0307061
436.5000	0.0313523
436.0000	0.0322876
435.5000	0.0329792
435.0000	0.0340253
434.5000	0.034722
434.0000	0.0357921
433.5000	0.036538
433.0000	0.0376829
432.5000	0.0384958
432.0000	0.0397075
431.5000	0.0405406
431.0000	0.0418072
430.5000	0.0426765
430.0000	0.043985
429.5000	0.0449322
429.0000	0.0463089
428.5000	0.047241
428.0000	0.0487123
427.5000	0.0496728
427.0000	0.05115
426.5000	0.0521352
426.0000	0.0536248
425.5000	0.0546267
425.0000	0.0561515
424.5000	0.0571825
424.0000	0.058737
423.5000	0.0597779
423.0000	0.0613069
422.5000	0.0623371
422.0000	0.0638553
421.5000	0.0648443
421.0000	0.0663742
420.5000	0.0673858
420.0000	0.0689104
419.5000	0.0698994
419.0000	0.0713779
418.5000	0.0723659
418.0000	0.0737967
417.5000	0.0747528
417.0000	0.0761461
416.5000	0.0770715
416.0000	0.0784101
415.5000	0.0792886
415.0000	0.0805968
414.5000	0.0814369
414.0000	0.0826601
413.5000	0.083452
413.0000	0.0846544
412.5000	0.0853928
412.0000	0.0864602
411.5000	0.0871118
411.0000	0.0880913
410.5000	0.0887421
410.0000	0.0897113
409.5000	0.0903254
409.0000	0.0911705
408.5000	0.0917379
408.0000	0.0924705
407.5000	0.0929663
407.0000	0.0936255
406.5000	0.0940414
406.0000	0.0946374
405.5000	0.0950101
405.0000	0.0955114
404.5000	0.0958541
404.0000	0.0962699
403.5000	0.0965648
403.0000	0.0969079
402.5000	0.0971367
402.0000	0.097405
401.5000	0.0974951
401.0000	0.097644
400.5000	0.0977917
400.0000	0.0979765
399.5000	0.0980505
399.0000	0.0981813
398.5000	0.0982235
398.0000	0.0982793
397.5000	0.098309
397.0000	0.0983002
396.5000	0.0982912
396.0000	0.0982361
395.5000	0.0982056
395.0000	0.0982371
394.5000	0.0982156
394.0000	0.0980289
393.5000	0.0979259
393.0000	0.097739
392.5000	0.0976044
392.0000	0.0973793
391.5000	0.0971811
391.0000	0.0969453
390.5000	0.0967319
390.0000	0.0964428
389.5000	0.096247
389.0000	0.0959232
388.5000	0.0956717
388.0000	0.0953638
387.5000	0.0951201
387.0000	0.0947528
386.5000	0.0945018
386.0000	0.0941135
385.5000	0.0938501
385.0000	0.0934726
384.5000	0.0931963
384.0000	0.0927904
383.5000	0.0924864
383.0000	0.0920611
382.5000	0.0917625
382.0000	0.0913302
381.5000	0.0910228
381.0000	0.0906039
380.5000	0.0902835
380.0000	0.0898438
379.5000	0.0895594
379.0000	0.0890671
378.5000	0.0887535
378.0000	0.0883097
377.5000	0.0879693
377.0000	0.0874843
376.5000	0.0871473
376.0000	0.0866984
375.5000	0.086401
375.0000	0.0858833
374.5000	0.0855363
374.0000	0.0850642
373.5000	0.0847044
373.0000	0.0841873
372.5000	0.0838522
372.0000	0.083309
371.5000	0.0829504
371.0000	0.0824535
370.5000	0.0821245
370.0000	0.0815512
369.5000	0.0811495
369.0000	0.0805237
368.5000	0.0801474
368.0000	0.0795565
367.5000	0.0791719
367.0000	0.0786082
366.5000	0.07828
366.0000	0.0776566
365.5000	0.0772689
365.0000	0.0767401
364.5000	0.0763413
364.0000	0.0757202
363.5000	0.0753411
363.0000	0.0747391
362.5000	0.0743596
362.0000	0.0737235
361.5000	0.0733084
361.0000	0.0726113
360.5000	0.0721925
360.0000	0.0715424
359.5000	0.0711249
359.0000	0.0704905
358.5000	0.0700873
358.0000	0.0693923
357.5000	0.0689682
357.0000	0.0683456
356.5000	0.0679271
356.0000	0.0672744
355.5000	0.0668742
355.0000	0.0662874
354.5000	0.0659358
354.0000	0.0653052
353.5000	0.064894
353.0000	0.0642967
352.5000	0.0639272
352.0000	0.0633861
351.5000	0.0630917
351.0000	0.0625908
350.5000	0.0622249
350.0000	0.0616342
349.5000	0.0613228
349.0000	0.0607519
348.5000	0.0604037
348.0000	0.0598798
347.5000	0.0595544
347.0000	0.0590994
346.5000	0.0587971
346.0000	0.0582551
345.5000	0.0579477
345.0000	0.0573741
344.5000	0.0570541
344.0000	0.0566017
343.5000	0.0563576
343.0000	0.0558823
342.5000	0.0556297
342.0000	0.0552134
341.5000	0.054889
341.0000	0.0544192
340.5000	0.0541249
340.0000	0.0523956
339.5000	0.0521716
339.0000	0.0517193
338.5000	0.051454
338.0000	0.0510638
337.5000	0.0508277
337.0000	0.05034
336.5000	0.0500804
336.0000	0.0496755
335.5000	0.0494212
335.0000	0.0490254
334.5000	0.0488473
334.0000	0.0484843
333.5000	0.0482733
333.0000	0.047921
332.5000	0.047713
332.0000	0.0474243
331.5000	0.047215
331.0000	0.0468679
330.5000	0.0466135
330.0000	0.0462545
329.5000	0.0460332
329.0000	0.045618
328.5000	0.0453863
328.0000	0.0449717
327.5000	0.044741
327.0000	0.0443211
326.5000	0.0440493
326.0000	0.043705
325.5000	0.0434284
325.0000	0.0429771
324.5000	0.0426682
324.0000	0.0422866
323.5000	0.0419989
323.0000	0.0415686
322.5000	0.0413231
322.0000	0.0408415
321.5000	0.0405924
321.0000	0.0400853
320.5000	0.0397333
320.0000	0.03923
319.5000	0.0388254
319.0000	0.038266
318.5000	0.0379836
318.0000	0.0374366
317.5000	0.0370725
317.0000	0.0364758
316.5000	0.0360375
316.0000	0.0353857
315.5000	0.0349763
315.0000	0.0343418
314.5000	0.0339645
314.0000	0.0332713
313.5000	0.0327954
313.0000	0.0320793
312.5000	0.0317354
312.0000	0.0310483
311.5000	0.0305929
311.0000	0.0297812
310.5000	0.0293993
310.0000	0.028847
309.5000	0.0284363
309.0000	0.0278023
308.5000	0.027336
308.0000	0.0265213
307.5000	0.0260003
307.0000	0.0252367
306.5000	0.024743
306.0000	0.0239785
305.5000	0.0234139
305.0000	0.0226769
304.5000	0.0223842
304.0000	0.0213997
303.5000	0.0209321
303.0000	0.0199928
302.5000	0.0193323
302.0000	0.0182352
301.5000	0.0174961
301.0000	0.0167919
300.5000	0.0163274
300.0000	0.015449
299.5000	0.0147121
299.0000	0.0137286
298.5000	0.0126745
298.0000	0.0119978
297.5000	0.010546
297.0000	0.00966474
296.5000	0.00935089
296.0000	0.00792343
295.5000	0.0077497
295.0000	0.00759491
294.5000	0.00678041
294.0000	0.00617368
293.5000	0.00585496
293.0000	0.00495446
292.5000	0.00472905
292.0000	0.00518064
291.5000	0.00436222
291.0000	0.00471759
290.5000	0.0038257
290.0000	0.00411775
289.5000	0.00473707
289.0000	0.00265352
288.5000	0.00289312
288.0000	0.00317478
287.5000	0.00352355
287.0000	0.0045514
286.5000	0.00317311
286.0000	0.00310439
285.5000	0.00266207
285.0000	0.00372425
284.5000	0.00510046
284.0000	0.00686856
283.5000	0.00257125
283.0000	0.00338896
282.5000	0.00678451
282.0000	0.00794832
281.5000	0.00988059
281.0000	0.0119443
280.5000	0.011347
280.0000	0.012973
279.5000	0.0136193
279.0000	0.016212
278.5000	0.0178801
278.0000	0.0197862
277.5000	0.0219325
277.0000	0.0263128
276.5000	0.023103
276.0000	0.0182962
275.5000	0.0194275
275.0000	0.0130992
274.5000	0.0106456
274.0000	0.00938511
273.5000	0.012691
273.0000	0.01415
272.5000	0.0111632
272.0000	0.00669797
271.5000	0.00502651
271.0000	0.00585057
270.5000	0.0034461
270.0000	0.00738168
269.5000	0.00585401
269.0000	0.0121421
268.5000	0.0109342
268.0000	0.0107703
267.5000	0.0111923
267.0000	0.00588033
266.5000	0.00764207
266.0000	0.0074172
265.5000	0.00648599
265.0000	0.00664196
264.5000	0.00298631
264.0000	0.00368529
263.5000	0.00604907
263.0000	0.00691649
262.5000	0.00481547
262.0000	0.00885411
261.5000	0.00815038
261.0000	0.0108847
260.5000	0.00916617
260.0000	0.00474847
259.5000	0.00601521
259.0000	0.00496337
258.5000	0.0069197
258.0000	0.0100635
257.5000	0.0124999
257.0000	0.0106093
256.5000	0.0109219
256.0000	0.00878812
255.5000	0.00590022
255.0000	0.0103407
254.5000	0.0092624
254.0000	0.00920615
253.5000	0.00999398
253.0000	0.00670854
252.5000	0.00711
252.0000	0.00778682
251.5000	0.00654485
251.0000	0.00498457
250.5000	0.0055941
250.0000	0.00667611
249.5000	0.0093977
249.0000	0.012809
248.5000	0.00924404
248.0000	0.00963611
247.5000	0.00890733
247.0000	0.0101589
246.5000	0.0132429
246.0000	0.0118752
245.5000	0.00922135
245.0000	0.00859585
244.5000	0.00957007
244.0000	0.00862294
243.5000	0.00710614
243.0000	0.0046829
242.5000	0.00522774
242.0000	0.00712853
241.5000	0.00868441
241.0000	0.00931508
240.5000	0.0104936
240.0000	0.00770432
239.5000	0.00950871
239.0000	0.00875777
238.5000	0.00807905
238.0000	0.00608037
237.5000	0.00585461
237.0000	0.00464121
236.5000	0.00431156
236.0000	0.000767812
235.5000	0.000493046
235.0000	-0.00149286
234.5000	0.00076805
234.0000	-0.00346309
233.5000	-0.00231312
233.0000	-0.000561589
232.5000	-0.00069826
232.0000	-0.00150064
231.5000	-0.00175349
231.0000	-0.000229328
230.5000	0.00340161
230.0000	0.00562599
229.5000	0.0100846
229.0000	0.00646193
228.5000	0.00508858
228.0000	0.00211266
227.5000	0.000696478
227.0000	0.000712752
226.5000	0.000501065
226.0000	0.00162905
225.5000	3.96765E-005
225.0000	0.00328454
224.5000	0.00210595
224.0000	0.00105612
223.5000	0.000906562
223.0000	-0.00246814
222.5000	0.00185702
222.0000	0.00687426
221.5000	0.00676366
221.0000	0.012215
220.5000	0.0138368
220.0000	0.0120265
219.5000	0.0153157
219.0000	0.0146949
218.5000	0.013843
218.0000	0.0144879
217.5000	0.0104816
217.0000	0.0101389
216.5000	0.0109303
216.0000	0.00639173
215.5000	0.00469341
215.0000	0.00507385
214.5000	0.00373738
214.0000	0.00393837
213.5000	0.00535574
213.0000	0.00277736
212.5000	0.00261313
212.0000	0.00169766
211.5000	0.00570457
211.0000	0.00476754
210.5000	0.00406887
210.0000	0.00704568
209.5000	0.00926228
209.0000	0.0119162
208.5000	0.012472
208.0000	0.00826389
207.5000	0.0137193
207.0000	0.0111167
206.5000	0.00943702
206.0000	0.0125013
205.5000	0.0134414
205.0000	0.00889889
204.5000	0.0105944
204.0000	0.0123589
203.5000	0.00988285
203.0000	0.00750843
202.5000	0.00407706
202.0000	-0.0025978
201.5000	-0.00158867
201.0000	-0.0027953
200.5000	-0.00271131
200.0000	-0.0025396

##### Extended Information
[Comments]
Sample name	N2200
Comment	Mes
User
Division
Company	ICMAB

[Detailed Information]
Creation date	21/10/25 1:51 PM

Data array type	Linear data array
Horizontal axis	Wavelength [nm]
Vertical axis	Abs
Start	1600 nm
End	200 nm
Data interval	0.5 nm
Data points	2801    

[Measurement Information]
Instrument name	V-780
Model name	V-780
Serial No.	D003961802

Accessory	FLH-741
Accessory S/N	B057261128
  Mask	
  Ref. beam	

Measurement date	21/10/25 1:51 PM

Photometric mode	Abs
Measurement range	1600 - 200 nm
Data interval	0.5 nm
UV/Vis bandwidth	1.0 nm
NIR bandwidth	2.0 nm
UV/Vis response	0.96 sec
NIR response	0.96 sec
Scan mode	Continuous
Scan speed	400 nm/min
Change source at	340 nm
Change grating at	850 nm
Light source	D2/WI
Filter exchange	Step
Correction	Baseline
No. of cycles	1

