TITLE	n2200-mesi
DATA TYPE	ULTRAVIOLET SPECTRUM
ORIGIN	JASCO
OWNER	
DATE	21/12/23
TIME	11:03:20
SPECTROMETER/DATA SYSTEM	
LOCALE	1033
RESOLUTION	
DELTAX	-0.5
XUNITS	NANOMETERS
YUNITS	ABSORBANCE
FIRSTX	 1600.0000
LASTX	  200.0000
NPOINTS	    2801
FIRSTY	     0.01744
MAXY	     1.24442
MINY	     0.01744
XYDATA
1600.0000	0.0174407
1599.5000	0.0174423
1599.0000	0.0174555
1598.5000	0.0174616
1598.0000	0.0174742
1597.5000	0.0174802
1597.0000	0.0174957
1596.5000	0.0175015
1596.0000	0.0175175
1595.5000	0.0175178
1595.0000	0.0175161
1594.5000	0.0175151
1594.0000	0.0175148
1593.5000	0.017514
1593.0000	0.0175169
1592.5000	0.017524
1592.0000	0.0175323
1591.5000	0.0175351
1591.0000	0.017537
1590.5000	0.0175387
1590.0000	0.0175575
1589.5000	0.0175667
1589.0000	0.0175762
1588.5000	0.0175789
1588.0000	0.0175854
1587.5000	0.0175895
1587.0000	0.0176061
1586.5000	0.0176164
1586.0000	0.0176321
1585.5000	0.0176421
1585.0000	0.0176563
1584.5000	0.0176687
1584.0000	0.0176784
1583.5000	0.0176805
1583.0000	0.0176858
1582.5000	0.0176933
1582.0000	0.0177045
1581.5000	0.0177122
1581.0000	0.0177172
1580.5000	0.0177153
1580.0000	0.0177098
1579.5000	0.0177056
1579.0000	0.0176855
1578.5000	0.017681
1578.0000	0.0176686
1577.5000	0.0176577
1577.0000	0.017635
1576.5000	0.0176191
1576.0000	0.0175895
1575.5000	0.017579
1575.0000	0.0175669
1574.5000	0.0175542
1574.0000	0.0175398
1573.5000	0.0175289
1573.0000	0.0175183
1572.5000	0.0175219
1572.0000	0.0175135
1571.5000	0.0175154
1571.0000	0.0175179
1570.5000	0.0175283
1570.0000	0.0175391
1569.5000	0.0175559
1569.0000	0.0175668
1568.5000	0.0175712
1568.0000	0.0175736
1567.5000	0.0175835
1567.0000	0.0175992
1566.5000	0.0176132
1566.0000	0.0176314
1565.5000	0.0176368
1565.0000	0.0176466
1564.5000	0.0176665
1564.0000	0.0176755
1563.5000	0.0176917
1563.0000	0.0177053
1562.5000	0.0177185
1562.0000	0.0177364
1561.5000	0.0177482
1561.0000	0.0177576
1560.5000	0.0177676
1560.0000	0.0177846
1559.5000	0.0178017
1559.0000	0.0178185
1558.5000	0.0178313
1558.0000	0.017835
1557.5000	0.0178406
1557.0000	0.0178376
1556.5000	0.0178484
1556.0000	0.017852
1555.5000	0.0178604
1555.0000	0.0178662
1554.5000	0.0178735
1554.0000	0.0178692
1553.5000	0.0178657
1553.0000	0.0178575
1552.5000	0.0178612
1552.0000	0.017862
1551.5000	0.0178638
1551.0000	0.0178555
1550.5000	0.0178559
1550.0000	0.0178409
1549.5000	0.0178372
1549.0000	0.0178331
1548.5000	0.0178496
1548.0000	0.0178483
1547.5000	0.0178652
1547.0000	0.0178568
1546.5000	0.0178646
1546.0000	0.0178633
1545.5000	0.0178746
1545.0000	0.017878
1544.5000	0.017886
1544.0000	0.0178819
1543.5000	0.0178884
1543.0000	0.017883
1542.5000	0.0178945
1542.0000	0.0178894
1541.5000	0.0178972
1541.0000	0.0178882
1540.5000	0.017891
1540.0000	0.0178742
1539.5000	0.0178782
1539.0000	0.0178631
1538.5000	0.0178691
1538.0000	0.0178578
1537.5000	0.0178655
1537.0000	0.0178511
1536.5000	0.0178494
1536.0000	0.0178389
1535.5000	0.0178417
1535.0000	0.0178284
1534.5000	0.0178386
1534.0000	0.0178263
1533.5000	0.0178327
1533.0000	0.0178243
1532.5000	0.0178412
1532.0000	0.0178394
1531.5000	0.0178523
1531.0000	0.0178458
1530.5000	0.0178607
1530.0000	0.0178618
1529.5000	0.0178767
1529.0000	0.0178867
1528.5000	0.0179022
1528.0000	0.0179123
1527.5000	0.0179353
1527.0000	0.0179547
1526.5000	0.0179767
1526.0000	0.0180012
1525.5000	0.0180262
1525.0000	0.018036
1524.5000	0.0180465
1524.0000	0.0180629
1523.5000	0.0180864
1523.0000	0.0181008
1522.5000	0.0181208
1522.0000	0.0181383
1521.5000	0.0181553
1521.0000	0.0181663
1520.5000	0.0181778
1520.0000	0.0181835
1519.5000	0.0181879
1519.0000	0.0182015
1518.5000	0.0182235
1518.0000	0.018231
1517.5000	0.0182309
1517.0000	0.0182134
1516.5000	0.0182118
1516.0000	0.0181949
1515.5000	0.0181984
1515.0000	0.0181901
1514.5000	0.0181866
1514.0000	0.0181635
1513.5000	0.0181577
1513.0000	0.0181509
1512.5000	0.0181492
1512.0000	0.0181313
1511.5000	0.0181309
1511.0000	0.0181243
1510.5000	0.018124
1510.0000	0.0181113
1509.5000	0.0181231
1509.0000	0.0181156
1508.5000	0.0181198
1508.0000	0.0181226
1507.5000	0.0181366
1507.0000	0.0181424
1506.5000	0.0181454
1506.0000	0.0181491
1505.5000	0.0181623
1505.0000	0.0181767
1504.5000	0.0181856
1504.0000	0.0181955
1503.5000	0.0182063
1503.0000	0.0182111
1502.5000	0.018213
1502.0000	0.0182142
1501.5000	0.0182235
1501.0000	0.0182226
1500.5000	0.018221
1500.0000	0.018223
1499.5000	0.0182248
1499.0000	0.018221
1498.5000	0.0182233
1498.0000	0.018224
1497.5000	0.0182304
1497.0000	0.0182281
1496.5000	0.0182333
1496.0000	0.0182436
1495.5000	0.0182531
1495.0000	0.0182647
1494.5000	0.0182733
1494.0000	0.018279
1493.5000	0.0182915
1493.0000	0.0183084
1492.5000	0.0183198
1492.0000	0.0183339
1491.5000	0.0183489
1491.0000	0.0183647
1490.5000	0.0183811
1490.0000	0.0183926
1489.5000	0.0184086
1489.0000	0.018424
1488.5000	0.0184391
1488.0000	0.0184463
1487.5000	0.0184572
1487.0000	0.0184668
1486.5000	0.0184733
1486.0000	0.0184793
1485.5000	0.0184841
1485.0000	0.0184917
1484.5000	0.0184983
1484.0000	0.0185092
1483.5000	0.0185229
1483.0000	0.0185369
1482.5000	0.0185449
1482.0000	0.0185504
1481.5000	0.0185531
1481.0000	0.0185648
1480.5000	0.0185645
1480.0000	0.0185605
1479.5000	0.0185632
1479.0000	0.0185533
1478.5000	0.0185518
1478.0000	0.0185407
1477.5000	0.0185317
1477.0000	0.0185091
1476.5000	0.0184932
1476.0000	0.0184792
1475.5000	0.0184784
1475.0000	0.0184729
1474.5000	0.018462
1474.0000	0.0184705
1473.5000	0.0184775
1473.0000	0.018489
1472.5000	0.0184864
1472.0000	0.0184906
1471.5000	0.018496
1471.0000	0.0185001
1470.5000	0.0184965
1470.0000	0.0185032
1469.5000	0.0185088
1469.0000	0.01854
1468.5000	0.0185527
1468.0000	0.0185871
1467.5000	0.0185981
1467.0000	0.018625
1466.5000	0.0186426
1466.0000	0.0186688
1465.5000	0.0186793
1465.0000	0.018698
1464.5000	0.0187139
1464.0000	0.0187312
1463.5000	0.0187291
1463.0000	0.0187464
1462.5000	0.0187531
1462.0000	0.0187641
1461.5000	0.0187646
1461.0000	0.0187678
1460.5000	0.0187686
1460.0000	0.0187726
1459.5000	0.018768
1459.0000	0.0187801
1458.5000	0.0187813
1458.0000	0.0187965
1457.5000	0.0187994
1457.0000	0.0188068
1456.5000	0.0188007
1456.0000	0.0188045
1455.5000	0.0188043
1455.0000	0.0188139
1454.5000	0.018811
1454.0000	0.0188141
1453.5000	0.0188142
1453.0000	0.0188296
1452.5000	0.0188429
1452.0000	0.0188646
1451.5000	0.0188656
1451.0000	0.0188859
1450.5000	0.0188883
1450.0000	0.0188977
1449.5000	0.0188819
1449.0000	0.0188789
1448.5000	0.0188666
1448.0000	0.0188657
1447.5000	0.0188545
1447.0000	0.0188541
1446.5000	0.0188448
1446.0000	0.0188419
1445.5000	0.0188396
1445.0000	0.018843
1444.5000	0.0188374
1444.0000	0.0188508
1443.5000	0.0188562
1443.0000	0.0188655
1442.5000	0.0188671
1442.0000	0.0188823
1441.5000	0.0188801
1441.0000	0.0188845
1440.5000	0.0188734
1440.0000	0.0188763
1439.5000	0.0188603
1439.0000	0.0188634
1438.5000	0.0188597
1438.0000	0.0188778
1437.5000	0.0188824
1437.0000	0.0188972
1436.5000	0.0188986
1436.0000	0.0189075
1435.5000	0.0189117
1435.0000	0.0189291
1434.5000	0.0189339
1434.0000	0.0189589
1433.5000	0.0189745
1433.0000	0.0190138
1432.5000	0.0190294
1432.0000	0.0190737
1431.5000	0.0190945
1431.0000	0.0191334
1430.5000	0.0191501
1430.0000	0.0191678
1429.5000	0.0191694
1429.0000	0.0191764
1428.5000	0.0191737
1428.0000	0.0191818
1427.5000	0.0191832
1427.0000	0.0192046
1426.5000	0.0192091
1426.0000	0.0192201
1425.5000	0.0192141
1425.0000	0.0192155
1424.5000	0.0192092
1424.0000	0.019203
1423.5000	0.0191833
1423.0000	0.0191663
1422.5000	0.0191554
1422.0000	0.0191571
1421.5000	0.0191601
1421.0000	0.0191789
1420.5000	0.0191829
1420.0000	0.0192023
1419.5000	0.0192119
1419.0000	0.019221
1418.5000	0.0192233
1418.0000	0.0192305
1417.5000	0.0192336
1417.0000	0.0192405
1416.5000	0.0192358
1416.0000	0.019234
1415.5000	0.019228
1415.0000	0.0192204
1414.5000	0.0192053
1414.0000	0.0191931
1413.5000	0.0191786
1413.0000	0.0191912
1412.5000	0.0191968
1412.0000	0.0192111
1411.5000	0.0192019
1411.0000	0.0192054
1410.5000	0.0192033
1410.0000	0.0192032
1409.5000	0.0191869
1409.0000	0.0191688
1408.5000	0.019172
1408.0000	0.0192252
1407.5000	0.0192564
1407.0000	0.0193241
1406.5000	0.0193697
1406.0000	0.0194701
1405.5000	0.019534
1405.0000	0.0195942
1404.5000	0.019607
1404.0000	0.0196208
1403.5000	0.0196194
1403.0000	0.0195906
1402.5000	0.0195485
1402.0000	0.0194996
1401.5000	0.0194708
1401.0000	0.0194562
1400.5000	0.019467
1400.0000	0.0195095
1399.5000	0.0195544
1399.0000	0.0196102
1398.5000	0.0196411
1398.0000	0.0196767
1397.5000	0.0196886
1397.0000	0.0197113
1396.5000	0.0197215
1396.0000	0.0197557
1395.5000	0.0197717
1395.0000	0.0197968
1394.5000	0.0197973
1394.0000	0.0197921
1393.5000	0.0197861
1393.0000	0.01978
1392.5000	0.0197746
1392.0000	0.0197572
1391.5000	0.0197346
1391.0000	0.0196931
1390.5000	0.0196563
1390.0000	0.019592
1389.5000	0.0195586
1389.0000	0.019531
1388.5000	0.0195246
1388.0000	0.0195196
1387.5000	0.0195248
1387.0000	0.0195465
1386.5000	0.0195638
1386.0000	0.0196116
1385.5000	0.0196188
1385.0000	0.0196345
1384.5000	0.0196405
1384.0000	0.0196878
1383.5000	0.0197111
1383.0000	0.0196828
1382.5000	0.0196394
1382.0000	0.019549
1381.5000	0.0195127
1381.0000	0.0194068
1380.5000	0.0193397
1380.0000	0.0192655
1379.5000	0.0192705
1379.0000	0.0193533
1378.5000	0.0194162
1378.0000	0.0195185
1377.5000	0.0195878
1377.0000	0.0196943
1376.5000	0.0197457
1376.0000	0.0197595
1375.5000	0.0197451
1375.0000	0.0196909
1374.5000	0.0196588
1374.0000	0.0196174
1373.5000	0.0195908
1373.0000	0.0195727
1372.5000	0.0195499
1372.0000	0.0195188
1371.5000	0.0194845
1371.0000	0.01947
1370.5000	0.0194594
1370.0000	0.0194393
1369.5000	0.0194519
1369.0000	0.0194901
1368.5000	0.0195504
1368.0000	0.0196135
1367.5000	0.0196523
1367.0000	0.0196769
1366.5000	0.0196752
1366.0000	0.0196672
1365.5000	0.0196572
1365.0000	0.0196538
1364.5000	0.0196507
1364.0000	0.0196652
1363.5000	0.0196797
1363.0000	0.0197106
1362.5000	0.0197261
1362.0000	0.0197307
1361.5000	0.0197462
1361.0000	0.0197868
1360.5000	0.019821
1360.0000	0.0198255
1359.5000	0.019811
1359.0000	0.0197831
1358.5000	0.0197847
1358.0000	0.0197613
1357.5000	0.0197154
1357.0000	0.0196437
1356.5000	0.0195883
1356.0000	0.0195101
1355.5000	0.0194479
1355.0000	0.0193459
1354.5000	0.0193082
1354.0000	0.0192711
1353.5000	0.0192945
1353.0000	0.0193224
1352.5000	0.0193647
1352.0000	0.0194242
1351.5000	0.0194732
1351.0000	0.0195424
1350.5000	0.0195762
1350.0000	0.0196176
1349.5000	0.0196471
1349.0000	0.0196955
1348.5000	0.0197294
1348.0000	0.0197676
1347.5000	0.0197946
1347.0000	0.0198114
1346.5000	0.0198203
1346.0000	0.0198175
1345.5000	0.0198252
1345.0000	0.0198203
1344.5000	0.0198289
1344.0000	0.0198286
1343.5000	0.0198311
1343.0000	0.0198332
1342.5000	0.0198369
1342.0000	0.0198355
1341.5000	0.0198386
1341.0000	0.019832
1340.5000	0.019833
1340.0000	0.0198262
1339.5000	0.0198343
1339.0000	0.0198402
1338.5000	0.0198449
1338.0000	0.0198416
1337.5000	0.0198464
1337.0000	0.0198451
1336.5000	0.0198506
1336.0000	0.0198485
1335.5000	0.019848
1335.0000	0.0198456
1334.5000	0.0198542
1334.0000	0.0198556
1333.5000	0.01986
1333.0000	0.0198588
1332.5000	0.0198635
1332.0000	0.0198672
1331.5000	0.0198722
1331.0000	0.0198668
1330.5000	0.0198719
1330.0000	0.0198686
1329.5000	0.0198736
1329.0000	0.0198843
1328.5000	0.0198917
1328.0000	0.0198953
1327.5000	0.0198963
1327.0000	0.0198962
1326.5000	0.0199029
1326.0000	0.0199091
1325.5000	0.0199195
1325.0000	0.0199252
1324.5000	0.0199341
1324.0000	0.0199435
1323.5000	0.019956
1323.0000	0.0199807
1322.5000	0.0199946
1322.0000	0.0200101
1321.5000	0.0200234
1321.0000	0.0200506
1320.5000	0.0200647
1320.0000	0.0200853
1319.5000	0.0200977
1319.0000	0.020109
1318.5000	0.0201215
1318.0000	0.0201346
1317.5000	0.0201503
1317.0000	0.0201622
1316.5000	0.0201638
1316.0000	0.0201583
1315.5000	0.0201581
1315.0000	0.0201572
1314.5000	0.0201568
1314.0000	0.0201525
1313.5000	0.0201491
1313.0000	0.0201469
1312.5000	0.0201476
1312.0000	0.0201448
1311.5000	0.0201395
1311.0000	0.0201217
1310.5000	0.0201163
1310.0000	0.0201092
1309.5000	0.02011
1309.0000	0.0201071
1308.5000	0.020107
1308.0000	0.0201075
1307.5000	0.0201177
1307.0000	0.0201325
1306.5000	0.0201438
1306.0000	0.0201588
1305.5000	0.0201655
1305.0000	0.0201829
1304.5000	0.0201932
1304.0000	0.0202031
1303.5000	0.0202148
1303.0000	0.0202244
1302.5000	0.0202391
1302.0000	0.0202556
1301.5000	0.0202685
1301.0000	0.0202694
1300.5000	0.0202761
1300.0000	0.0202847
1299.5000	0.0202925
1299.0000	0.0202952
1298.5000	0.0202987
1298.0000	0.0203047
1297.5000	0.0203135
1297.0000	0.020324
1296.5000	0.0203338
1296.0000	0.0203425
1295.5000	0.0203496
1295.0000	0.0203647
1294.5000	0.0203692
1294.0000	0.0203776
1293.5000	0.0203768
1293.0000	0.0203882
1292.5000	0.0203975
1292.0000	0.020418
1291.5000	0.0204305
1291.0000	0.0204416
1290.5000	0.02045
1290.0000	0.0204512
1289.5000	0.0204564
1289.0000	0.020459
1288.5000	0.0204627
1288.0000	0.0204593
1287.5000	0.0204579
1287.0000	0.0204495
1286.5000	0.0204526
1286.0000	0.0204537
1285.5000	0.0204577
1285.0000	0.0204623
1284.5000	0.0204592
1284.0000	0.0204573
1283.5000	0.020452
1283.0000	0.0204496
1282.5000	0.0204531
1282.0000	0.0204546
1281.5000	0.0204571
1281.0000	0.0204688
1280.5000	0.0204712
1280.0000	0.020488
1279.5000	0.0204999
1279.0000	0.0205184
1278.5000	0.0205261
1278.0000	0.0205446
1277.5000	0.0205517
1277.0000	0.0205857
1276.5000	0.0206005
1276.0000	0.0206235
1275.5000	0.0206379
1275.0000	0.0206613
1274.5000	0.0206761
1274.0000	0.020691
1273.5000	0.0206976
1273.0000	0.0207099
1272.5000	0.020715
1272.0000	0.0207283
1271.5000	0.0207277
1271.0000	0.0207432
1270.5000	0.020745
1270.0000	0.0207469
1269.5000	0.020741
1269.0000	0.0207489
1268.5000	0.0207503
1268.0000	0.0207686
1267.5000	0.0207687
1267.0000	0.0207742
1266.5000	0.020772
1266.0000	0.0207725
1265.5000	0.0207787
1265.0000	0.0207754
1264.5000	0.0207829
1264.0000	0.0207726
1263.5000	0.0207805
1263.0000	0.020787
1262.5000	0.0207912
1262.0000	0.0207989
1261.5000	0.0207988
1261.0000	0.0208093
1260.5000	0.0208102
1260.0000	0.0208298
1259.5000	0.0208407
1259.0000	0.0208625
1258.5000	0.0208686
1258.0000	0.0208738
1257.5000	0.0208745
1257.0000	0.0208774
1256.5000	0.0208731
1256.0000	0.0208698
1255.5000	0.0208671
1255.0000	0.0208813
1254.5000	0.0208868
1254.0000	0.0208999
1253.5000	0.0209073
1253.0000	0.0209239
1252.5000	0.0209372
1252.0000	0.0209634
1251.5000	0.0209807
1251.0000	0.021
1250.5000	0.0210112
1250.0000	0.021029
1249.5000	0.0210441
1249.0000	0.0210671
1248.5000	0.0210822
1248.0000	0.0211075
1247.5000	0.021123
1247.0000	0.0211318
1246.5000	0.0211311
1246.0000	0.0211286
1245.5000	0.0211265
1245.0000	0.0211295
1244.5000	0.0211278
1244.0000	0.0211333
1243.5000	0.0211341
1243.0000	0.0211386
1242.5000	0.0211498
1242.0000	0.0211499
1241.5000	0.0211473
1241.0000	0.0211438
1240.5000	0.0211414
1240.0000	0.0211429
1239.5000	0.0211428
1239.0000	0.0211428
1238.5000	0.0211435
1238.0000	0.0211583
1237.5000	0.0211644
1237.0000	0.0211782
1236.5000	0.0211826
1236.0000	0.0212045
1235.5000	0.0212178
1235.0000	0.0212416
1234.5000	0.0212497
1234.0000	0.0212662
1233.5000	0.021283
1233.0000	0.0213022
1232.5000	0.0213144
1232.0000	0.0213379
1231.5000	0.0213482
1231.0000	0.0213662
1230.5000	0.0213664
1230.0000	0.0213698
1229.5000	0.0213695
1229.0000	0.0213754
1228.5000	0.0213725
1228.0000	0.0213857
1227.5000	0.0213956
1227.0000	0.0214176
1226.5000	0.021427
1226.0000	0.0214593
1225.5000	0.0214764
1225.0000	0.0215101
1224.5000	0.0215239
1224.0000	0.0215396
1223.5000	0.0215475
1223.0000	0.0215685
1222.5000	0.0215791
1222.0000	0.0215954
1221.5000	0.0215942
1221.0000	0.0216009
1220.5000	0.0215991
1220.0000	0.0215994
1219.5000	0.0215983
1219.0000	0.0215979
1218.5000	0.0215938
1218.0000	0.0215983
1217.5000	0.0215968
1217.0000	0.0216062
1216.5000	0.021608
1216.0000	0.0216203
1215.5000	0.021632
1215.0000	0.0216437
1214.5000	0.0216437
1214.0000	0.0216609
1213.5000	0.0216682
1213.0000	0.0217005
1212.5000	0.0217085
1212.0000	0.0217333
1211.5000	0.0217491
1211.0000	0.0217776
1210.5000	0.0217896
1210.0000	0.0218183
1209.5000	0.0218291
1209.0000	0.0218495
1208.5000	0.0218569
1208.0000	0.021876
1207.5000	0.0218871
1207.0000	0.021908
1206.5000	0.0219168
1206.0000	0.0219248
1205.5000	0.0219227
1205.0000	0.0219315
1204.5000	0.0219355
1204.0000	0.0219474
1203.5000	0.0219524
1203.0000	0.0219606
1202.5000	0.0219692
1202.0000	0.0219792
1201.5000	0.0219857
1201.0000	0.0219963
1200.5000	0.0220116
1200.0000	0.0220543
1199.5000	0.0220577
1199.0000	0.0220659
1198.5000	0.0220703
1198.0000	0.0220854
1197.5000	0.0220936
1197.0000	0.022101
1196.5000	0.0221081
1196.0000	0.0221173
1195.5000	0.0221277
1195.0000	0.0221331
1194.5000	0.022135
1194.0000	0.0221445
1193.5000	0.0221498
1193.0000	0.0221682
1192.5000	0.0221825
1192.0000	0.0222074
1191.5000	0.0222209
1191.0000	0.0222431
1190.5000	0.0222538
1190.0000	0.0222633
1189.5000	0.0222722
1189.0000	0.0222766
1188.5000	0.0222893
1188.0000	0.0223105
1187.5000	0.022324
1187.0000	0.022354
1186.5000	0.0223599
1186.0000	0.0223716
1185.5000	0.0223756
1185.0000	0.022391
1184.5000	0.022397
1184.0000	0.0224096
1183.5000	0.0224108
1183.0000	0.0224087
1182.5000	0.0223997
1182.0000	0.0223887
1181.5000	0.022381
1181.0000	0.0223738
1180.5000	0.0223668
1180.0000	0.0223614
1179.5000	0.0223523
1179.0000	0.0223437
1178.5000	0.0223438
1178.0000	0.0223462
1177.5000	0.0223491
1177.0000	0.0223543
1176.5000	0.0223567
1176.0000	0.0223589
1175.5000	0.0223623
1175.0000	0.0223703
1174.5000	0.0223759
1174.0000	0.0223811
1173.5000	0.0223884
1173.0000	0.0223994
1172.5000	0.0224085
1172.0000	0.0224137
1171.5000	0.0224212
1171.0000	0.0224343
1170.5000	0.0224402
1170.0000	0.0224479
1169.5000	0.0224543
1169.0000	0.0224627
1168.5000	0.0224731
1168.0000	0.0224752
1167.5000	0.0224768
1167.0000	0.0224738
1166.5000	0.0224756
1166.0000	0.0224874
1165.5000	0.0225019
1165.0000	0.0225246
1164.5000	0.0225364
1164.0000	0.0225528
1163.5000	0.0225633
1163.0000	0.0225777
1162.5000	0.0225874
1162.0000	0.0225968
1161.5000	0.0226058
1161.0000	0.0226032
1160.5000	0.022606
1160.0000	0.0226061
1159.5000	0.0226071
1159.0000	0.0226059
1158.5000	0.0225981
1158.0000	0.0225894
1157.5000	0.0225786
1157.0000	0.0225739
1156.5000	0.0225745
1156.0000	0.0225832
1155.5000	0.0225879
1155.0000	0.0226022
1154.5000	0.0226079
1154.0000	0.0226169
1153.5000	0.0226232
1153.0000	0.0226323
1152.5000	0.0226441
1152.0000	0.0226535
1151.5000	0.0226649
1151.0000	0.0226782
1150.5000	0.0226935
1150.0000	0.0227157
1149.5000	0.0227366
1149.0000	0.0227576
1148.5000	0.0227662
1148.0000	0.0227695
1147.5000	0.0227739
1147.0000	0.022788
1146.5000	0.0227933
1146.0000	0.0227911
1145.5000	0.0227871
1145.0000	0.0227907
1144.5000	0.0227912
1144.0000	0.022791
1143.5000	0.0227919
1143.0000	0.0227982
1142.5000	0.0228088
1142.0000	0.0228126
1141.5000	0.0228125
1141.0000	0.0228068
1140.5000	0.022807
1140.0000	0.0228115
1139.5000	0.0228162
1139.0000	0.0228245
1138.5000	0.022827
1138.0000	0.0228419
1137.5000	0.0228459
1137.0000	0.0228515
1136.5000	0.0228556
1136.0000	0.0228557
1135.5000	0.0228539
1135.0000	0.0228549
1134.5000	0.0228588
1134.0000	0.0228678
1133.5000	0.0228766
1133.0000	0.0228875
1132.5000	0.0228951
1132.0000	0.0229043
1131.5000	0.0229261
1131.0000	0.022951
1130.5000	0.0229762
1130.0000	0.0230034
1129.5000	0.023026
1129.0000	0.0230431
1128.5000	0.0230507
1128.0000	0.0230599
1127.5000	0.0230658
1127.0000	0.0230735
1126.5000	0.0230744
1126.0000	0.0230696
1125.5000	0.023063
1125.0000	0.0230655
1124.5000	0.0230661
1124.0000	0.0230568
1123.5000	0.0230516
1123.0000	0.0230477
1122.5000	0.0230483
1122.0000	0.0230508
1121.5000	0.0230544
1121.0000	0.0230613
1120.5000	0.0230678
1120.0000	0.0230759
1119.5000	0.0230945
1119.0000	0.0230976
1118.5000	0.0231017
1118.0000	0.0231044
1117.5000	0.0231173
1117.0000	0.0231309
1116.5000	0.023141
1116.0000	0.0231659
1115.5000	0.0231837
1115.0000	0.0231971
1114.5000	0.0231997
1114.0000	0.0231991
1113.5000	0.0232058
1113.0000	0.0232214
1112.5000	0.023237
1112.0000	0.0232514
1111.5000	0.0232575
1111.0000	0.0232688
1110.5000	0.0232766
1110.0000	0.0232956
1109.5000	0.0233044
1109.0000	0.0233167
1108.5000	0.023325
1108.0000	0.0233363
1107.5000	0.0233456
1107.0000	0.0233595
1106.5000	0.0233698
1106.0000	0.0233715
1105.5000	0.0233763
1105.0000	0.0233691
1104.5000	0.0233727
1104.0000	0.0233679
1103.5000	0.0233646
1103.0000	0.02335
1102.5000	0.0233461
1102.0000	0.0233417
1101.5000	0.0233496
1101.0000	0.0233567
1100.5000	0.0233681
1100.0000	0.0233699
1099.5000	0.0233788
1099.0000	0.0233796
1098.5000	0.0233862
1098.0000	0.0233974
1097.5000	0.0234166
1097.0000	0.0234377
1096.5000	0.0234603
1096.0000	0.0234761
1095.5000	0.0234844
1095.0000	0.0234982
1094.5000	0.0235095
1094.0000	0.0235197
1093.5000	0.0235281
1093.0000	0.0235291
1092.5000	0.0235396
1092.0000	0.0235422
1091.5000	0.0235457
1091.0000	0.0235389
1090.5000	0.0235393
1090.0000	0.0235412
1089.5000	0.0235475
1089.0000	0.0235523
1088.5000	0.0235536
1088.0000	0.0235591
1087.5000	0.023564
1087.0000	0.0235763
1086.5000	0.02358
1086.0000	0.0235772
1085.5000	0.0235729
1085.0000	0.0235661
1084.5000	0.0235636
1084.0000	0.023565
1083.5000	0.0235596
1083.0000	0.0235676
1082.5000	0.0235697
1082.0000	0.023563
1081.5000	0.0235711
1081.0000	0.0235881
1080.5000	0.0236004
1080.0000	0.0236137
1079.5000	0.0236206
1079.0000	0.0236406
1078.5000	0.0236576
1078.0000	0.0236832
1077.5000	0.0236972
1077.0000	0.0237114
1076.5000	0.0237171
1076.0000	0.0237285
1075.5000	0.0237358
1075.0000	0.0237495
1074.5000	0.023757
1074.0000	0.0237665
1073.5000	0.0237623
1073.0000	0.0237581
1072.5000	0.0237545
1072.0000	0.0237528
1071.5000	0.0237466
1071.0000	0.0237366
1070.5000	0.0237356
1070.0000	0.0237322
1069.5000	0.023737
1069.0000	0.0237394
1068.5000	0.0237441
1068.0000	0.0237486
1067.5000	0.0237542
1067.0000	0.0237588
1066.5000	0.0237632
1066.0000	0.0237666
1065.5000	0.0237648
1065.0000	0.0237733
1064.5000	0.0237786
1064.0000	0.0237919
1063.5000	0.0237974
1063.0000	0.0237975
1062.5000	0.0237992
1062.0000	0.0238111
1061.5000	0.0238225
1061.0000	0.023845
1060.5000	0.0238548
1060.0000	0.0238685
1059.5000	0.0238721
1059.0000	0.023886
1058.5000	0.0238834
1058.0000	0.0238827
1057.5000	0.0238919
1057.0000	0.0239082
1056.5000	0.0239171
1056.0000	0.0239242
1055.5000	0.0239183
1055.0000	0.0239163
1054.5000	0.0239142
1054.0000	0.0239123
1053.5000	0.0239084
1053.0000	0.0238985
1052.5000	0.0238866
1052.0000	0.023881
1051.5000	0.0238819
1051.0000	0.0238845
1050.5000	0.0238873
1050.0000	0.0238947
1049.5000	0.0238999
1049.0000	0.0239097
1048.5000	0.0239197
1048.0000	0.0239309
1047.5000	0.0239413
1047.0000	0.0239524
1046.5000	0.0239699
1046.0000	0.0239881
1045.5000	0.0240001
1045.0000	0.0240098
1044.5000	0.0240108
1044.0000	0.0240176
1043.5000	0.0240152
1043.0000	0.02402
1042.5000	0.0240185
1042.0000	0.0240146
1041.5000	0.0240064
1041.0000	0.0240077
1040.5000	0.0240024
1040.0000	0.0240113
1039.5000	0.0240077
1039.0000	0.0240144
1038.5000	0.0240129
1038.0000	0.0240205
1037.5000	0.0240166
1037.0000	0.0240212
1036.5000	0.0240109
1036.0000	0.0240024
1035.5000	0.023997
1035.0000	0.0239923
1034.5000	0.0239879
1034.0000	0.0239918
1033.5000	0.0239903
1033.0000	0.0239954
1032.5000	0.0240071
1032.0000	0.0240247
1031.5000	0.0240324
1031.0000	0.0240469
1030.5000	0.0240587
1030.0000	0.0240816
1029.5000	0.024094
1029.0000	0.0241032
1028.5000	0.0241076
1028.0000	0.0241181
1027.5000	0.0241182
1027.0000	0.0241196
1026.5000	0.0241161
1026.0000	0.0241066
1025.5000	0.0241024
1025.0000	0.0240968
1024.5000	0.024092
1024.0000	0.0240808
1023.5000	0.024075
1023.0000	0.0240724
1022.5000	0.0240721
1022.0000	0.0240789
1021.5000	0.0240838
1021.0000	0.0240914
1020.5000	0.0240928
1020.0000	0.0240919
1019.5000	0.0240922
1019.0000	0.0240903
1018.5000	0.0240841
1018.0000	0.0240947
1017.5000	0.0241024
1017.0000	0.0241123
1016.5000	0.0241107
1016.0000	0.0241199
1015.5000	0.024132
1015.0000	0.0241373
1014.5000	0.0241378
1014.0000	0.0241523
1013.5000	0.0241628
1013.0000	0.0241808
1012.5000	0.024173
1012.0000	0.0241781
1011.5000	0.0241832
1011.0000	0.0241855
1010.5000	0.0241838
1010.0000	0.0241831
1009.5000	0.0241826
1009.0000	0.0241873
1008.5000	0.0241766
1008.0000	0.024164
1007.5000	0.0241525
1007.0000	0.0241442
1006.5000	0.0241326
1006.0000	0.0241391
1005.5000	0.0241423
1005.0000	0.0241549
1004.5000	0.0241638
1004.0000	0.0241755
1003.5000	0.024194
1003.0000	0.0242081
1002.5000	0.0242125
1002.0000	0.0242134
1001.5000	0.0242116
1001.0000	0.0242125
1000.5000	0.0242159
1000.0000	0.024227
999.5000	0.0242321
999.0000	0.0242389
998.5000	0.0242398
998.0000	0.0242445
997.5000	0.0242466
997.0000	0.0242543
996.5000	0.0242528
996.0000	0.0242556
995.5000	0.0242502
995.0000	0.0242501
994.5000	0.0242481
994.0000	0.0242404
993.5000	0.0242353
993.0000	0.0242318
992.5000	0.0242302
992.0000	0.0242362
991.5000	0.024228
991.0000	0.0242196
990.5000	0.0242107
990.0000	0.024211
989.5000	0.0242131
989.0000	0.0242231
988.5000	0.0242282
988.0000	0.0242412
987.5000	0.0242511
987.0000	0.0242749
986.5000	0.0242922
986.0000	0.0243043
985.5000	0.0243113
985.0000	0.0243091
984.5000	0.0243105
984.0000	0.0243115
983.5000	0.0243035
983.0000	0.0243109
982.5000	0.0243086
982.0000	0.0243021
981.5000	0.0242986
981.0000	0.0242849
980.5000	0.0242885
980.0000	0.0242816
979.5000	0.024276
979.0000	0.024272
978.5000	0.0242739
978.0000	0.0242872
977.5000	0.02429
977.0000	0.024295
976.5000	0.0242969
976.0000	0.0243033
975.5000	0.0243061
975.0000	0.0243099
974.5000	0.0243116
974.0000	0.0243138
973.5000	0.0243118
973.0000	0.0243116
972.5000	0.0243229
972.0000	0.0243422
971.5000	0.0243582
971.0000	0.0243713
970.5000	0.0243788
970.0000	0.0243838
969.5000	0.0243811
969.0000	0.0243802
968.5000	0.0243766
968.0000	0.0243816
967.5000	0.0243732
967.0000	0.0243725
966.5000	0.0243633
966.0000	0.024348
965.5000	0.024342
965.0000	0.0243289
964.5000	0.0243262
964.0000	0.0243277
963.5000	0.0243346
963.0000	0.0243394
962.5000	0.0243439
962.0000	0.0243534
961.5000	0.0243626
961.0000	0.0243818
960.5000	0.0243924
960.0000	0.0244011
959.5000	0.0243988
959.0000	0.0243944
958.5000	0.0243886
958.0000	0.0243922
957.5000	0.0244038
957.0000	0.0244147
956.5000	0.0244165
956.0000	0.0244109
955.5000	0.0244127
955.0000	0.0244189
954.5000	0.0244161
954.0000	0.0244166
953.5000	0.0244133
953.0000	0.0244153
952.5000	0.0244114
952.0000	0.0244093
951.5000	0.0244061
951.0000	0.0243974
950.5000	0.0243944
950.0000	0.0244047
949.5000	0.0244087
949.0000	0.0244227
948.5000	0.0244277
948.0000	0.0244307
947.5000	0.0244359
947.0000	0.0244501
946.5000	0.0244613
946.0000	0.0244735
945.5000	0.0244826
945.0000	0.0244894
944.5000	0.0244973
944.0000	0.0244906
943.5000	0.0244885
943.0000	0.0244878
942.5000	0.0244903
942.0000	0.0244958
941.5000	0.0244935
941.0000	0.024491
940.5000	0.0244848
940.0000	0.0244897
939.5000	0.0244832
939.0000	0.0244923
938.5000	0.0244924
938.0000	0.0244947
937.5000	0.0244952
937.0000	0.0244964
936.5000	0.0244999
936.0000	0.0245101
935.5000	0.0245132
935.0000	0.0245209
934.5000	0.0245204
934.0000	0.0245364
933.5000	0.0245429
933.0000	0.0245613
932.5000	0.0245662
932.0000	0.0245811
931.5000	0.0245928
931.0000	0.0245995
930.5000	0.024607
930.0000	0.0246003
929.5000	0.0245955
929.0000	0.0245869
928.5000	0.0245773
928.0000	0.0245752
927.5000	0.0245669
927.0000	0.0245721
926.5000	0.0245669
926.0000	0.0245773
925.5000	0.0245851
925.0000	0.024607
924.5000	0.0246035
924.0000	0.0246083
923.5000	0.0246087
923.0000	0.0246354
922.5000	0.0246465
922.0000	0.0246546
921.5000	0.0246525
921.0000	0.024649
920.5000	0.0246494
920.0000	0.0246531
919.5000	0.0246609
919.0000	0.0246702
918.5000	0.0246866
918.0000	0.0246857
917.5000	0.0246857
917.0000	0.0246783
916.5000	0.0246811
916.0000	0.0246779
915.5000	0.0246728
915.0000	0.024679
914.5000	0.0246759
914.0000	0.0246843
913.5000	0.0247004
913.0000	0.0247012
912.5000	0.0247024
912.0000	0.0247135
911.5000	0.0247339
911.0000	0.0247653
910.5000	0.0247787
910.0000	0.0247974
909.5000	0.0248071
909.0000	0.0248388
908.5000	0.0248425
908.0000	0.0248511
907.5000	0.0248561
907.0000	0.0248571
906.5000	0.0248602
906.0000	0.0248592
905.5000	0.0248702
905.0000	0.0248904
904.5000	0.0248965
904.0000	0.0249102
903.5000	0.0249148
903.0000	0.0249211
902.5000	0.0249241
902.0000	0.0249259
901.5000	0.0249294
901.0000	0.024948
900.5000	0.02496
900.0000	0.0249753
899.5000	0.024987
899.0000	0.0249974
898.5000	0.025017
898.0000	0.0250403
897.5000	0.0250514
897.0000	0.0250747
896.5000	0.0250881
896.0000	0.0251282
895.5000	0.0251383
895.0000	0.0251446
894.5000	0.0251438
894.0000	0.0251329
893.5000	0.0251379
893.0000	0.0251499
892.5000	0.0251765
892.0000	0.0251919
891.5000	0.0252082
891.0000	0.0252217
890.5000	0.0252435
890.0000	0.0252683
889.5000	0.0252952
889.0000	0.0253262
888.5000	0.0253499
888.0000	0.0253872
887.5000	0.0253964
887.0000	0.02541
886.5000	0.0254209
886.0000	0.0254483
885.5000	0.0254659
885.0000	0.025487
884.5000	0.0255012
884.0000	0.0255487
883.5000	0.0255731
883.0000	0.0256089
882.5000	0.0256202
882.0000	0.0256598
881.5000	0.0256743
881.0000	0.025712
880.5000	0.0257182
880.0000	0.0257414
879.5000	0.0257487
879.0000	0.0257883
878.5000	0.0258119
878.0000	0.0258508
877.5000	0.0258647
877.0000	0.0259139
876.5000	0.0259459
876.0000	0.0259952
875.5000	0.0260246
875.0000	0.0260941
874.5000	0.0261211
874.0000	0.0261735
873.5000	0.0261851
873.0000	0.026237
872.5000	0.0262503
872.0000	0.0263176
871.5000	0.0263533
871.0000	0.0264066
870.5000	0.0264406
870.0000	0.0265055
869.5000	0.0265455
869.0000	0.0265965
868.5000	0.0266429
868.0000	0.0267081
867.5000	0.0267468
867.0000	0.0267864
866.5000	0.026813
866.0000	0.0268633
865.5000	0.0269114
865.0000	0.0269993
864.5000	0.0270536
864.0000	0.0271474
863.5000	0.0272105
863.0000	0.0272863
862.5000	0.0273286
862.0000	0.0274102
861.5000	0.0274609
861.0000	0.0275201
860.5000	0.0275548
860.0000	0.0276386
859.5000	0.0277119
859.0000	0.0278007
858.5000	0.0278505
858.0000	0.0279396
857.5000	0.0280155
857.0000	0.0281001
856.5000	0.0281459
856.0000	0.0282545
855.5000	0.0283309
855.0000	0.0284647
854.5000	0.0285237
854.0000	0.0286322
853.5000	0.0287085
853.0000	0.0288152
852.5000	0.0288802
852.0000	0.0289939
851.5000	0.029085
851.0000	0.0292184
850.5000	0.0292895
850.0000	0.0299982
849.5000	0.030102
849.0000	0.0302767
848.5000	0.0304063
848.0000	0.0305272
847.5000	0.0305552
847.0000	0.0306066
846.5000	0.030716
846.0000	0.0308613
845.5000	0.0309985
845.0000	0.0312449
844.5000	0.0312957
844.0000	0.0314543
843.5000	0.0315232
843.0000	0.0317334
842.5000	0.0318575
842.0000	0.031974
841.5000	0.0320445
841.0000	0.0322519
840.5000	0.0323576
840.0000	0.0325989
839.5000	0.0326911
839.0000	0.0328111
838.5000	0.0329837
838.0000	0.0331258
837.5000	0.0332154
837.0000	0.0334353
836.5000	0.0335414
836.0000	0.033755
835.5000	0.033811
835.0000	0.0341274
834.5000	0.0343038
834.0000	0.0346107
833.5000	0.034653
833.0000	0.0348889
832.5000	0.0349386
832.0000	0.0352793
831.5000	0.035516
831.0000	0.0357904
830.5000	0.0359105
830.0000	0.0360359
829.5000	0.0361411
829.0000	0.0363796
828.5000	0.0365872
828.0000	0.0368394
827.5000	0.0369857
827.0000	0.0372941
826.5000	0.0375584
826.0000	0.0378119
825.5000	0.0380607
825.0000	0.0382906
824.5000	0.0384746
824.0000	0.0387001
823.5000	0.0389884
823.0000	0.0393428
822.5000	0.0394786
822.0000	0.0396254
821.5000	0.0397494
821.0000	0.0400216
820.5000	0.0403211
820.0000	0.0406925
819.5000	0.0408213
819.0000	0.0411218
818.5000	0.0413401
818.0000	0.0417416
817.5000	0.0419812
817.0000	0.0422868
816.5000	0.0424302
816.0000	0.0427317
815.5000	0.0429091
815.0000	0.0431855
814.5000	0.0433996
814.0000	0.0437324
813.5000	0.0439795
813.0000	0.0443148
812.5000	0.0445139
812.0000	0.0449118
811.5000	0.0450538
811.0000	0.0454098
810.5000	0.0456467
810.0000	0.0461255
809.5000	0.0463904
809.0000	0.0467446
808.5000	0.0468872
808.0000	0.0472403
807.5000	0.0474944
807.0000	0.0477971
806.5000	0.0479681
806.0000	0.0482407
805.5000	0.0484843
805.0000	0.0489535
804.5000	0.0492678
804.0000	0.0497302
803.5000	0.049937
803.0000	0.0501139
802.5000	0.0502591
802.0000	0.0505517
801.5000	0.0507894
801.0000	0.0511818
800.5000	0.0513958
800.0000	0.0518192
799.5000	0.0520205
799.0000	0.052342
798.5000	0.0526093
798.0000	0.0529714
797.5000	0.0532712
797.0000	0.0537002
796.5000	0.0538799
796.0000	0.0541655
795.5000	0.0543721
795.0000	0.0547413
794.5000	0.0550132
794.0000	0.055373
793.5000	0.0555949
793.0000	0.0559316
792.5000	0.0561437
792.0000	0.0564073
791.5000	0.0566828
791.0000	0.0569927
790.5000	0.0572464
790.0000	0.0575703
789.5000	0.0577708
789.0000	0.0581427
788.5000	0.0583829
788.0000	0.0586995
787.5000	0.0588814
787.0000	0.0592319
786.5000	0.0594732
786.0000	0.0597936
785.5000	0.0599898
785.0000	0.0602595
784.5000	0.0604576
784.0000	0.0607172
783.5000	0.0608439
783.0000	0.0611733
782.5000	0.0613127
782.0000	0.0617434
781.5000	0.0619334
781.0000	0.0623615
780.5000	0.062545
780.0000	0.0627369
779.5000	0.0628529
779.0000	0.0631054
778.5000	0.0633084
778.0000	0.0636178
777.5000	0.0638078
777.0000	0.0640576
776.5000	0.0642309
776.0000	0.0645243
775.5000	0.064663
775.0000	0.0648465
774.5000	0.0650076
774.0000	0.0652522
773.5000	0.0654963
773.0000	0.0657901
772.5000	0.0659526
772.0000	0.0662277
771.5000	0.0664193
771.0000	0.0666428
770.5000	0.0667738
770.0000	0.0669004
769.5000	0.0670725
769.0000	0.067307
768.5000	0.0674735
768.0000	0.0676842
767.5000	0.0677872
767.0000	0.0679984
766.5000	0.068103
766.0000	0.0683362
765.5000	0.068468
765.0000	0.0686657
764.5000	0.0688325
764.0000	0.0690698
763.5000	0.0692419
763.0000	0.0695071
762.5000	0.0696178
762.0000	0.0698447
761.5000	0.0699555
761.0000	0.0701586
760.5000	0.0702735
760.0000	0.0705312
759.5000	0.0706029
759.0000	0.0708399
758.5000	0.0709291
758.0000	0.0711634
757.5000	0.0713074
757.0000	0.0714956
756.5000	0.071664
756.0000	0.0718569
755.5000	0.0720266
755.0000	0.0722173
754.5000	0.0723787
754.0000	0.0725698
753.5000	0.0727064
753.0000	0.0729225
752.5000	0.0730405
752.0000	0.0732212
751.5000	0.0733054
751.0000	0.0735368
750.5000	0.0736978
750.0000	0.073925
749.5000	0.0740772
749.0000	0.0742425
748.5000	0.0743489
748.0000	0.0745939
747.5000	0.0747795
747.0000	0.0750751
746.5000	0.0752123
746.0000	0.0754527
745.5000	0.075575
745.0000	0.0757839
744.5000	0.0759097
744.0000	0.0761578
743.5000	0.0763338
743.0000	0.0765588
742.5000	0.0766899
742.0000	0.0769004
741.5000	0.0770089
741.0000	0.0771472
740.5000	0.0772871
740.0000	0.0775016
739.5000	0.0776262
739.0000	0.0779225
738.5000	0.0781136
738.0000	0.0783191
737.5000	0.0784562
737.0000	0.0786308
736.5000	0.0788292
736.0000	0.0790964
735.5000	0.0792249
735.0000	0.0794625
734.5000	0.079624
734.0000	0.0799231
733.5000	0.0800738
733.0000	0.0802765
732.5000	0.080357
732.0000	0.0805559
731.5000	0.080694
731.0000	0.0809615
730.5000	0.0810537
730.0000	0.0812819
729.5000	0.0814245
729.0000	0.0817073
728.5000	0.0818768
728.0000	0.0820534
727.5000	0.08215
727.0000	0.0823213
726.5000	0.0824574
726.0000	0.0826484
725.5000	0.0828054
725.0000	0.0830313
724.5000	0.083185
724.0000	0.083261
723.5000	0.0833513
723.0000	0.0834975
722.5000	0.0836711
722.0000	0.0838561
721.5000	0.0839921
721.0000	0.0841386
720.5000	0.0842608
720.0000	0.0844446
719.5000	0.0844999
719.0000	0.0846744
718.5000	0.0847728
718.0000	0.0848643
717.5000	0.0849041
717.0000	0.0850787
716.5000	0.0852254
716.0000	0.0853535
715.5000	0.0854156
715.0000	0.085515
714.5000	0.0856039
714.0000	0.085731
713.5000	0.0857713
713.0000	0.0859167
712.5000	0.0859669
712.0000	0.0860721
711.5000	0.0860668
711.0000	0.0861737
710.5000	0.0862105
710.0000	0.0863592
709.5000	0.0863793
709.0000	0.0864779
708.5000	0.0865149
708.0000	0.0866317
707.5000	0.086685
707.0000	0.0867323
706.5000	0.0867723
706.0000	0.0867921
705.5000	0.086803
705.0000	0.0867863
704.5000	0.0867524
704.0000	0.086756
703.5000	0.0868434
703.0000	0.0868962
702.5000	0.0869064
702.0000	0.0868921
701.5000	0.0869629
701.0000	0.0869251
700.5000	0.086937
700.0000	0.0869108
699.5000	0.0869444
699.0000	0.0869964
698.5000	0.0870216
698.0000	0.0869512
697.5000	0.086877
697.0000	0.0868202
696.5000	0.0868224
696.0000	0.0868151
695.5000	0.0868123
695.0000	0.0867631
694.5000	0.0867807
694.0000	0.0867799
693.5000	0.08682
693.0000	0.0868353
692.5000	0.0867771
692.0000	0.0867399
691.5000	0.0867012
691.0000	0.0867391
690.5000	0.0867127
690.0000	0.0866539
689.5000	0.0865718
689.0000	0.0865056
688.5000	0.086504
688.0000	0.08643
687.5000	0.086382
687.0000	0.0862901
686.5000	0.0861737
686.0000	0.0859332
685.5000	0.0856817
685.0000	0.0853292
684.5000	0.0850835
684.0000	0.0846691
683.5000	0.0843263
683.0000	0.0838292
682.5000	0.0834904
682.0000	0.0829656
681.5000	0.0826268
681.0000	0.0821165
680.5000	0.0817908
680.0000	0.0814001
679.5000	0.0811813
679.0000	0.0810327
678.5000	0.0808821
678.0000	0.0807501
677.5000	0.0806523
677.0000	0.080554
676.5000	0.0804827
676.0000	0.0803211
675.5000	0.0802645
675.0000	0.080108
674.5000	0.0800455
674.0000	0.0798017
673.5000	0.079717
673.0000	0.0795509
672.5000	0.0794898
672.0000	0.0792985
671.5000	0.0791964
671.0000	0.0790047
670.5000	0.0789055
670.0000	0.0787398
669.5000	0.0785996
669.0000	0.0784448
668.5000	0.0783478
668.0000	0.0782098
667.5000	0.078067
667.0000	0.077881
666.5000	0.0777683
666.0000	0.0776048
665.5000	0.0774661
665.0000	0.0772479
664.5000	0.0771403
664.0000	0.0770407
663.5000	0.076964
663.0000	0.0767937
662.5000	0.0766392
662.0000	0.076444
661.5000	0.0763441
661.0000	0.076229
660.5000	0.0761113
660.0000	0.0759185
659.5000	0.0757906
659.0000	0.0755409
658.5000	0.0754444
658.0000	0.0752292
657.5000	0.0751302
657.0000	0.0749742
656.5000	0.0748862
656.0000	0.0747085
655.5000	0.0746105
655.0000	0.0744138
654.5000	0.0743078
654.0000	0.0741093
653.5000	0.0739873
653.0000	0.0738029
652.5000	0.0736532
652.0000	0.0734406
651.5000	0.0732927
651.0000	0.0730999
650.5000	0.0730138
650.0000	0.0727968
649.5000	0.0726855
649.0000	0.0724858
648.5000	0.0723841
648.0000	0.0722344
647.5000	0.0721145
647.0000	0.0718606
646.5000	0.0717442
646.0000	0.071517
645.5000	0.071433
645.0000	0.0712027
644.5000	0.0710684
644.0000	0.0708418
643.5000	0.0707201
643.0000	0.0705136
642.5000	0.070392
642.0000	0.0702441
641.5000	0.0700908
641.0000	0.0698814
640.5000	0.0696944
640.0000	0.0694972
639.5000	0.0693608
639.0000	0.0691746
638.5000	0.0690587
638.0000	0.0688699
637.5000	0.068746
637.0000	0.0685392
636.5000	0.0683394
636.0000	0.0681186
635.5000	0.0679679
635.0000	0.0678291
634.5000	0.0676506
634.0000	0.0674031
633.5000	0.067235
633.0000	0.0670333
632.5000	0.0669011
632.0000	0.0666707
631.5000	0.0665512
631.0000	0.0663206
630.5000	0.0661632
630.0000	0.0659444
629.5000	0.0657972
629.0000	0.0655862
628.5000	0.0653703
628.0000	0.0651254
627.5000	0.0649784
627.0000	0.0648099
626.5000	0.0646649
626.0000	0.064423
625.5000	0.0643144
625.0000	0.0640212
624.5000	0.0638787
624.0000	0.063605
623.5000	0.0634272
623.0000	0.0632265
622.5000	0.0630937
622.0000	0.0628943
621.5000	0.0627493
621.0000	0.0625138
620.5000	0.0623576
620.0000	0.0621247
619.5000	0.0620006
619.0000	0.0617984
618.5000	0.0616109
618.0000	0.061366
617.5000	0.0611896
617.0000	0.0610177
616.5000	0.0608753
616.0000	0.0606922
615.5000	0.0605694
615.0000	0.0603198
614.5000	0.0601707
614.0000	0.0599411
613.5000	0.0597818
613.0000	0.0595518
612.5000	0.0593751
612.0000	0.0591364
611.5000	0.0590033
611.0000	0.0587901
610.5000	0.0586985
610.0000	0.0584451
609.5000	0.0583276
609.0000	0.0580623
608.5000	0.0579606
608.0000	0.0577869
607.5000	0.0576342
607.0000	0.057368
606.5000	0.0571712
606.0000	0.0569528
605.5000	0.05683
605.0000	0.0566872
604.5000	0.0565318
604.0000	0.0563308
603.5000	0.0561439
603.0000	0.0559221
602.5000	0.0557754
602.0000	0.0556
601.5000	0.0554954
601.0000	0.0552777
600.5000	0.0551461
600.0000	0.0548864
599.5000	0.0547778
599.0000	0.0545965
598.5000	0.0544654
598.0000	0.0542625
597.5000	0.0541428
597.0000	0.0539229
596.5000	0.0537828
596.0000	0.0535862
595.5000	0.0535074
595.0000	0.0533602
594.5000	0.0532361
594.0000	0.0530287
593.5000	0.0529086
593.0000	0.0526805
592.5000	0.0525952
592.0000	0.052378
591.5000	0.0522668
591.0000	0.0520443
590.5000	0.0519589
590.0000	0.0517954
589.5000	0.0517044
589.0000	0.0514921
588.5000	0.0514035
588.0000	0.051207
587.5000	0.0511127
587.0000	0.0509355
586.5000	0.0508167
586.0000	0.0506078
585.5000	0.0505533
585.0000	0.0504497
584.5000	0.0503491
584.0000	0.0501221
583.5000	0.0499742
583.0000	0.0498267
582.5000	0.049733
582.0000	0.049577
581.5000	0.0495096
581.0000	0.0493536
580.5000	0.0492729
580.0000	0.0490665
579.5000	0.0489724
579.0000	0.0487398
578.5000	0.0486812
578.0000	0.0485352
577.5000	0.0484551
577.0000	0.0482998
576.5000	0.0482416
576.0000	0.0481565
575.5000	0.0480779
575.0000	0.047906
574.5000	0.047809
574.0000	0.0476514
573.5000	0.0475405
573.0000	0.0473758
572.5000	0.0472495
572.0000	0.0471488
571.5000	0.0470844
571.0000	0.0469949
570.5000	0.0469014
570.0000	0.0467545
569.5000	0.0466221
569.0000	0.0464656
568.5000	0.0463446
568.0000	0.0462467
567.5000	0.0461694
567.0000	0.04605
566.5000	0.0459376
566.0000	0.0458491
565.5000	0.0457875
565.0000	0.045683
564.5000	0.0456084
564.0000	0.0455247
563.5000	0.0454592
563.0000	0.0453256
562.5000	0.0452472
562.0000	0.0451782
561.5000	0.0451078
561.0000	0.0449969
560.5000	0.0449141
560.0000	0.0447769
559.5000	0.0446795
559.0000	0.0445872
558.5000	0.0445125
558.0000	0.0443852
557.5000	0.0442976
557.0000	0.0442022
556.5000	0.0441257
556.0000	0.0440215
555.5000	0.0439349
555.0000	0.0438129
554.5000	0.0437435
554.0000	0.0436131
553.5000	0.0435742
553.0000	0.04345
552.5000	0.0433617
552.0000	0.0432402
551.5000	0.0431884
551.0000	0.0430748
550.5000	0.042988
550.0000	0.0428628
549.5000	0.042776
549.0000	0.0426761
548.5000	0.0426084
548.0000	0.0425118
547.5000	0.0424376
547.0000	0.0423389
546.5000	0.0422395
546.0000	0.0421714
545.5000	0.0421135
545.0000	0.0420579
544.5000	0.0419891
544.0000	0.0418921
543.5000	0.0417669
543.0000	0.0416684
542.5000	0.0416197
542.0000	0.0415863
541.5000	0.0414926
541.0000	0.0413279
540.5000	0.0412584
540.0000	0.0411445
539.5000	0.041076
539.0000	0.0409741
538.5000	0.0409794
538.0000	0.0409565
537.5000	0.0408721
537.0000	0.0407533
536.5000	0.0406542
536.0000	0.0405845
535.5000	0.0405145
535.0000	0.0404143
534.5000	0.0403033
534.0000	0.0402359
533.5000	0.040159
533.0000	0.0401028
532.5000	0.0400826
532.0000	0.0399856
531.5000	0.0399418
531.0000	0.0398568
530.5000	0.0398082
530.0000	0.0397251
529.5000	0.0396398
529.0000	0.0395835
528.5000	0.0395322
528.0000	0.0395136
527.5000	0.0394478
527.0000	0.0393516
526.5000	0.0392681
526.0000	0.0391986
525.5000	0.0391727
525.0000	0.0391019
524.5000	0.0390302
524.0000	0.038932
523.5000	0.0389106
523.0000	0.038848
522.5000	0.0387581
522.0000	0.0386928
521.5000	0.0386809
521.0000	0.0386557
520.5000	0.038625
520.0000	0.0385442
519.5000	0.0384628
519.0000	0.0384134
518.5000	0.0383603
518.0000	0.0383646
517.5000	0.0383198
517.0000	0.0382461
516.5000	0.0381995
516.0000	0.0381407
515.5000	0.0381557
515.0000	0.0381266
514.5000	0.0381189
514.0000	0.0380406
513.5000	0.0379913
513.0000	0.0379545
512.5000	0.0379333
512.0000	0.0378991
511.5000	0.0378653
511.0000	0.0378347
510.5000	0.0378236
510.0000	0.0378258
509.5000	0.0378224
509.0000	0.0377406
508.5000	0.0377394
508.0000	0.037664
507.5000	0.0376583
507.0000	0.0376018
506.5000	0.0376187
506.0000	0.037574
505.5000	0.0375999
505.0000	0.0375827
504.5000	0.0375508
504.0000	0.0375729
503.5000	0.0375397
503.0000	0.0375879
502.5000	0.0376119
502.0000	0.0375907
501.5000	0.0375718
501.0000	0.0375332
500.5000	0.0375615
500.0000	0.0375157
499.5000	0.037549
499.0000	0.0375209
498.5000	0.0375044
498.0000	0.03751
497.5000	0.0375431
497.0000	0.0375968
496.5000	0.0376121
496.0000	0.0376267
495.5000	0.0376467
495.0000	0.0376703
494.5000	0.0376897
494.0000	0.0376987
493.5000	0.0377072
493.0000	0.0377274
492.5000	0.037738
492.0000	0.0378072
491.5000	0.0378796
491.0000	0.0379103
490.5000	0.0378659
490.0000	0.037835
489.5000	0.0378581
489.0000	0.0379071
488.5000	0.0379895
488.0000	0.0380268
487.5000	0.0380761
487.0000	0.0380586
486.5000	0.0380533
486.0000	0.0381175
485.5000	0.0381573
485.0000	0.0382378
484.5000	0.038258
484.0000	0.0383696
483.5000	0.0383559
483.0000	0.0384304
482.5000	0.0384431
482.0000	0.0385247
481.5000	0.0385672
481.0000	0.0386044
480.5000	0.0386651
480.0000	0.0387523
479.5000	0.0388138
479.0000	0.0388657
478.5000	0.0389397
478.0000	0.0390383
477.5000	0.0391204
477.0000	0.0392077
476.5000	0.0392359
476.0000	0.0392882
475.5000	0.0393186
475.0000	0.0393837
474.5000	0.039475
474.0000	0.039552
473.5000	0.0396884
473.0000	0.0398217
472.5000	0.039851
472.0000	0.0399402
471.5000	0.0399664
471.0000	0.0401148
470.5000	0.0401404
470.0000	0.0402531
469.5000	0.0403343
469.0000	0.0404826
468.5000	0.040556
468.0000	0.0406027
467.5000	0.0406307
467.0000	0.0407723
466.5000	0.0408406
466.0000	0.0409614
465.5000	0.0410713
465.0000	0.0411868
464.5000	0.0413186
464.0000	0.0414293
463.5000	0.0415237
463.0000	0.0416312
462.5000	0.0417639
462.0000	0.0418276
461.5000	0.0418851
461.0000	0.0419715
460.5000	0.0421526
460.0000	0.0423283
459.5000	0.0424755
459.0000	0.0426148
458.5000	0.0427293
458.0000	0.0428605
457.5000	0.0430077
457.0000	0.0431668
456.5000	0.0432998
456.0000	0.0434753
455.5000	0.043644
455.0000	0.0438185
454.5000	0.0439352
454.0000	0.0441177
453.5000	0.0443109
453.0000	0.0445568
452.5000	0.0447006
452.0000	0.0449506
451.5000	0.0451512
451.0000	0.0454011
450.5000	0.0455707
450.0000	0.0459191
449.5000	0.046067
449.0000	0.0463353
448.5000	0.0465888
448.0000	0.0468458
447.5000	0.0470964
447.0000	0.0474966
446.5000	0.0478184
446.0000	0.0482081
445.5000	0.0484349
445.0000	0.0487182
444.5000	0.0489993
444.0000	0.0494049
443.5000	0.0497154
443.0000	0.0501296
442.5000	0.0503719
442.0000	0.0507841
441.5000	0.0510919
441.0000	0.0515669
440.5000	0.0519031
440.0000	0.0524037
439.5000	0.0527317
439.0000	0.0533004
438.5000	0.0535908
438.0000	0.0541588
437.5000	0.0545842
437.0000	0.0551923
436.5000	0.0555759
436.0000	0.0562189
435.5000	0.0566814
435.0000	0.0574282
434.5000	0.0578635
434.0000	0.0586314
433.5000	0.0591438
433.0000	0.0599933
432.5000	0.0605432
432.0000	0.0613581
431.5000	0.0619401
431.0000	0.0627398
430.5000	0.0633715
430.0000	0.0642585
429.5000	0.0649242
429.0000	0.0659264
428.5000	0.0666249
428.0000	0.067696
427.5000	0.0683896
427.0000	0.0694477
426.5000	0.0702461
426.0000	0.0713059
425.5000	0.072052
425.0000	0.0731052
424.5000	0.0738489
424.0000	0.0749109
423.5000	0.0756489
423.0000	0.0767694
422.5000	0.0774391
422.0000	0.0785331
421.5000	0.0791836
421.0000	0.0802987
420.5000	0.0809868
420.0000	0.0820367
419.5000	0.0827612
419.0000	0.0837785
418.5000	0.0845347
418.0000	0.0855451
417.5000	0.0862422
417.0000	0.0871012
416.5000	0.0877246
416.0000	0.0885981
415.5000	0.0892753
415.0000	0.0901771
414.5000	0.0907574
414.0000	0.0916598
413.5000	0.0922158
413.0000	0.0930015
412.5000	0.0934634
412.0000	0.094207
411.5000	0.0946715
411.0000	0.0953604
410.5000	0.0958208
410.0000	0.0962581
409.5000	0.0965349
409.0000	0.0971251
408.5000	0.0974481
408.0000	0.0978403
407.5000	0.0982165
407.0000	0.0986081
406.5000	0.0988416
406.0000	0.0991646
405.5000	0.099363
405.0000	0.0997095
404.5000	0.0998434
404.0000	0.100009
403.5000	0.100178
403.0000	0.100312
402.5000	0.100385
402.0000	0.100459
401.5000	0.100572
401.0000	0.100682
400.5000	0.10071
400.0000	0.100632
399.5000	0.100527
399.0000	0.10031
398.5000	0.100302
398.0000	0.100238
397.5000	0.100266
397.0000	0.10039
396.5000	0.100449
396.0000	0.100466
395.5000	0.100389
395.0000	0.100364
394.5000	0.100403
394.0000	0.100226
393.5000	0.100077
393.0000	0.099932
392.5000	0.0999158
392.0000	0.0997743
391.5000	0.0996472
391.0000	0.0993614
390.5000	0.0992465
390.0000	0.0991288
389.5000	0.0990279
389.0000	0.0988993
388.5000	0.0987749
388.0000	0.0985977
387.5000	0.0984625
387.0000	0.0982177
386.5000	0.0981465
386.0000	0.0979493
385.5000	0.097819
385.0000	0.0975773
384.5000	0.0974159
384.0000	0.0972668
383.5000	0.0971916
383.0000	0.097077
382.5000	0.0969423
382.0000	0.0967782
381.5000	0.0966178
381.0000	0.0962965
380.5000	0.0961069
380.0000	0.0958609
379.5000	0.0957159
379.0000	0.095408
378.5000	0.0952358
378.0000	0.0947797
377.5000	0.0945805
377.0000	0.094211
376.5000	0.0940089
376.0000	0.0935395
375.5000	0.0932315
375.0000	0.0929114
374.5000	0.0926289
374.0000	0.0923856
373.5000	0.0921247
373.0000	0.0917686
372.5000	0.0914603
372.0000	0.0911717
371.5000	0.090941
371.0000	0.090655
370.5000	0.0903978
370.0000	0.0901553
369.5000	0.0899162
369.0000	0.089756
368.5000	0.0895972
368.0000	0.0894832
367.5000	0.0893702
367.0000	0.0891189
366.5000	0.0889896
366.0000	0.0887647
365.5000	0.0886745
365.0000	0.0884431
364.5000	0.0883179
364.0000	0.0881832
363.5000	0.0882121
363.0000	0.088075
362.5000	0.0879212
362.0000	0.0880176
361.5000	0.0879636
361.0000	0.0881489
360.5000	0.0880433
360.0000	0.0879783
359.5000	0.0880602
359.0000	0.0880949
358.5000	0.0882287
358.0000	0.0883016
357.5000	0.0883969
357.0000	0.088535
356.5000	0.0885778
356.0000	0.0887871
355.5000	0.0889146
355.0000	0.0891615
354.5000	0.0892839
354.0000	0.0895986
353.5000	0.0898684
353.0000	0.0902715
352.5000	0.0905364
352.0000	0.0909744
351.5000	0.0913599
351.0000	0.0917312
350.5000	0.0920504
350.0000	0.0926974
349.5000	0.0930414
349.0000	0.093732
348.5000	0.0941476
348.0000	0.0949361
347.5000	0.0954871
347.0000	0.0962865
346.5000	0.0968185
346.0000	0.0976255
345.5000	0.0981434
345.0000	0.0991074
344.5000	0.0998144
344.0000	0.101
343.5000	0.101825
343.0000	0.103194
342.5000	0.104012
342.0000	0.105346
341.5000	0.106211
341.0000	0.107675
340.5000	0.108678
340.0000	0.107518
339.5000	0.108589
339.0000	0.110093
338.5000	0.111338
338.0000	0.113025
337.5000	0.114312
337.0000	0.116312
336.5000	0.117905
336.0000	0.119956
335.5000	0.121374
335.0000	0.123593
334.5000	0.125118
334.0000	0.12763
333.5000	0.129308
333.0000	0.131988
332.5000	0.133759
332.0000	0.136574
331.5000	0.138474
331.0000	0.141526
330.5000	0.143831
330.0000	0.147195
329.5000	0.149548
329.0000	0.153017
328.5000	0.155447
328.0000	0.15953
327.5000	0.162176
327.0000	0.166604
326.5000	0.169334
326.0000	0.173875
325.5000	0.176969
325.0000	0.181679
324.5000	0.184914
324.0000	0.190085
323.5000	0.193715
323.0000	0.199337
322.5000	0.203066
322.0000	0.208911
321.5000	0.212986
321.0000	0.219354
320.5000	0.223709
320.0000	0.230633
319.5000	0.235417
319.0000	0.242905
318.5000	0.248006
318.0000	0.255891
317.5000	0.261262
317.0000	0.269779
316.5000	0.275558
316.0000	0.284771
315.5000	0.291039
315.0000	0.300826
314.5000	0.307603
314.0000	0.318092
313.5000	0.325506
313.0000	0.33703
312.5000	0.344908
312.0000	0.357312
311.5000	0.365619
311.0000	0.378663
310.5000	0.38743
310.0000	0.401455
309.5000	0.411159
309.0000	0.426367
308.5000	0.436884
308.0000	0.452733
307.5000	0.463735
307.0000	0.480601
306.5000	0.492646
306.0000	0.511285
305.5000	0.524264
305.0000	0.544418
304.5000	0.558076
304.0000	0.579119
303.5000	0.593403
303.0000	0.615395
302.5000	0.630739
302.0000	0.654614
301.5000	0.671094
301.0000	0.696868
300.5000	0.714073
300.0000	0.741319
299.5000	0.759235
299.0000	0.786994
298.5000	0.805816
298.0000	0.835213
297.5000	0.855483
297.0000	0.886901
296.5000	0.907985
296.0000	0.939745
295.5000	0.961121
295.0000	0.992663
294.5000	1.0145
294.0000	1.04657
293.5000	1.06738
293.0000	1.09906
292.5000	1.11949
292.0000	1.14876
291.5000	1.16612
291.0000	1.189
290.5000	1.2022
290.0000	1.21965
289.5000	1.2309
289.0000	1.24189
288.5000	1.24442
288.0000	1.23759
287.5000	1.22686
287.0000	1.20315
286.5000	1.17984
286.0000	1.13698
285.5000	1.10302
285.0000	1.04793
284.5000	1.00414
284.0000	0.935118
283.5000	0.887293
283.0000	0.817216
282.5000	0.766941
282.0000	0.692012
281.5000	0.646424
281.0000	0.580952
280.5000	0.536466
280.0000	0.477668
279.5000	0.435748
279.0000	0.380685
278.5000	0.34977
278.0000	0.307864
277.5000	0.28973
277.0000	0.259456
276.5000	0.246615
276.0000	0.227332
275.5000	0.22022
275.0000	0.209474
274.5000	0.198768
274.0000	0.182364
273.5000	0.17446
273.0000	0.167715
272.5000	0.165391
272.0000	0.169952
271.5000	0.173727
271.0000	0.17152
270.5000	0.170516
270.0000	0.166602
269.5000	0.169996
269.0000	0.169638
268.5000	0.172062
268.0000	0.164761
267.5000	0.160294
267.0000	0.160197
266.5000	0.166094
266.0000	0.168758
265.5000	0.165271
265.0000	0.156152
264.5000	0.164601
264.0000	0.159089
263.5000	0.16322
263.0000	0.149674
262.5000	0.15707
262.0000	0.161663
261.5000	0.167293
261.0000	0.168808
260.5000	0.168944
260.0000	0.171061
259.5000	0.180716
259.0000	0.16973
258.5000	0.174431
258.0000	0.173879
257.5000	0.176108
257.0000	0.181922
256.5000	0.188774
256.0000	0.194383
255.5000	0.199237
255.0000	0.202483
254.5000	0.207166
254.0000	0.207398
253.5000	0.204365
253.0000	0.207185
252.5000	0.215645
252.0000	0.230053
251.5000	0.240619
251.0000	0.238119
250.5000	0.239722
250.0000	0.235069
249.5000	0.235989
249.0000	0.237618
248.5000	0.243885
248.0000	0.255236
247.5000	0.261892
247.0000	0.272449
246.5000	0.274805
246.0000	0.277573
245.5000	0.28639
245.0000	0.296997
244.5000	0.294045
244.0000	0.297958
243.5000	0.301198
243.0000	0.313933
242.5000	0.319269
242.0000	0.318953
241.5000	0.315459
241.0000	0.316678
240.5000	0.323523
240.0000	0.32987
239.5000	0.340265
239.0000	0.346244
238.5000	0.350816
238.0000	0.362963
237.5000	0.36476
237.0000	0.363921
236.5000	0.363558
236.0000	0.366021
235.5000	0.366988
235.0000	0.381058
234.5000	0.389235
234.0000	0.39832
233.5000	0.400015
233.0000	0.408021
232.5000	0.416468
232.0000	0.425449
231.5000	0.430806
231.0000	0.439125
230.5000	0.4481
230.0000	0.461552
229.5000	0.464886
229.0000	0.475804
228.5000	0.478984
228.0000	0.487637
227.5000	0.494353
227.0000	0.500639
226.5000	0.506446
226.0000	0.514709
225.5000	0.518376
225.0000	0.524745
224.5000	0.52682
224.0000	0.535844
223.5000	0.537811
223.0000	0.533034
222.5000	0.542679
222.0000	0.541002
221.5000	0.542158
221.0000	0.532067
220.5000	0.527981
220.0000	0.527702
219.5000	0.522602
219.0000	0.518585
218.5000	0.516044
218.0000	0.514282
217.5000	0.509017
217.0000	0.503915
216.5000	0.49065
216.0000	0.487128
215.5000	0.486371
215.0000	0.486351
214.5000	0.480119
214.0000	0.465581
213.5000	0.460711
213.0000	0.449605
212.5000	0.44284
212.0000	0.436225
211.5000	0.431838
211.0000	0.42264
210.5000	0.418514
210.0000	0.404369
209.5000	0.395476
209.0000	0.391337
208.5000	0.387738
208.0000	0.380237
207.5000	0.371371
207.0000	0.359408
206.5000	0.349489
206.0000	0.335449
205.5000	0.333963
205.0000	0.325811
204.5000	0.323194
204.0000	0.313454
203.5000	0.309556
203.0000	0.297415
202.5000	0.290997
202.0000	0.277707
201.5000	0.275496
201.0000	0.265057
200.5000	0.255106
200.0000	0.242785

##### Extended Information
[Comments]
Sample name	n2200-mesi
Comment	1mgml-50mms
User
Division
Company	ICMAB

[Detailed Information]
Creation date	21/12/23 11:03 AM

Data array type	Linear data array
Horizontal axis	Wavelength [nm]
Vertical axis	Abs
Start	1600 nm
End	200 nm
Data interval	0.5 nm
Data points	2801    

[Measurement Information]
Instrument name	V-780
Model name	V-780
Serial No.	D003961802

Accessory	FLH-741
Accessory S/N	B057261128
  Mask	
  Ref. beam	

Measurement date	21/12/23 11:03 AM

Photometric mode	Abs
Measurement range	1600 - 200 nm
Data interval	0.5 nm
UV/Vis bandwidth	2.0 nm
NIR bandwidth	4.0 nm
UV/Vis response	0.24 sec
NIR response	0.24 sec
Scan mode	Continuous
Scan speed	400 nm/min
Change source at	340 nm
Change grating at	850 nm
Light source	D2/WI
Filter exchange	Step
Correction	Baseline
No. of cycles	1

