TITLE	N2200
DATA TYPE	ULTRAVIOLET SPECTRUM
ORIGIN	JASCO
OWNER	
DATE	22/02/25
TIME	12:41:00
SPECTROMETER/DATA SYSTEM	
LOCALE	1033
RESOLUTION	
DELTAX	-0.5
XUNITS	NANOMETERS
YUNITS	ABSORBANCE
FIRSTX	 1600.0000
LASTX	  200.0000
NPOINTS	    2801
FIRSTY	     0.00109
MAXY	    10.00000
MINY	    -0.78610
XYDATA
1600.0000	0.00108647
1599.5000	0.00108747
1599.0000	0.00109228
1598.5000	0.00109778
1598.0000	0.00110301
1597.5000	0.00110774
1597.0000	0.00111527
1596.5000	0.00111941
1596.0000	0.00112074
1595.5000	0.00112083
1595.0000	0.00112271
1594.5000	0.00112738
1594.0000	0.00113663
1593.5000	0.00114533
1593.0000	0.00115889
1592.5000	0.00117507
1592.0000	0.0011911
1591.5000	0.00120503
1591.0000	0.00121566
1590.5000	0.00122288
1590.0000	0.00122526
1589.5000	0.00122814
1589.0000	0.0012317
1588.5000	0.00123637
1588.0000	0.00124115
1587.5000	0.00125037
1587.0000	0.00126085
1586.5000	0.00127215
1586.0000	0.0012815
1585.5000	0.00128522
1585.0000	0.0012873
1584.5000	0.00128676
1584.0000	0.00128357
1583.5000	0.00127919
1583.0000	0.00127478
1582.5000	0.00127582
1582.0000	0.00128041
1581.5000	0.00128769
1581.0000	0.00129345
1580.5000	0.00129809
1580.0000	0.00130188
1579.5000	0.00130404
1579.0000	0.00130292
1578.5000	0.00129863
1578.0000	0.00129388
1577.5000	0.00129202
1577.0000	0.00129238
1576.5000	0.00129521
1576.0000	0.00129904
1575.5000	0.001305
1575.0000	0.00131153
1574.5000	0.00131705
1574.0000	0.00132141
1573.5000	0.00132279
1573.0000	0.00132221
1572.5000	0.00132022
1572.0000	0.00132068
1571.5000	0.00132109
1571.0000	0.00132217
1570.5000	0.00132505
1570.0000	0.00132889
1569.5000	0.00133519
1569.0000	0.00134025
1568.5000	0.00134345
1568.0000	0.00134406
1567.5000	0.00134486
1567.0000	0.00134444
1566.5000	0.00134291
1566.0000	0.00134233
1565.5000	0.00134047
1565.0000	0.00134156
1564.5000	0.00134477
1564.0000	0.00134824
1563.5000	0.00135121
1563.0000	0.0013522
1562.5000	0.00135389
1562.0000	0.00135574
1561.5000	0.00135589
1561.0000	0.00135305
1560.5000	0.0013504
1560.0000	0.00134895
1559.5000	0.00134859
1559.0000	0.00134875
1558.5000	0.0013498
1558.0000	0.00135091
1557.5000	0.00135375
1557.0000	0.00135739
1556.5000	0.00135876
1556.0000	0.00135853
1555.5000	0.00135669
1555.0000	0.00135575
1554.5000	0.00135514
1554.0000	0.00135472
1553.5000	0.00135374
1553.0000	0.00135477
1552.5000	0.00135851
1552.0000	0.00136419
1551.5000	0.00136699
1551.0000	0.00136938
1550.5000	0.00137038
1550.0000	0.00136835
1549.5000	0.00136832
1549.0000	0.00136671
1548.5000	0.00136486
1548.0000	0.00136561
1547.5000	0.00136736
1547.0000	0.00137237
1546.5000	0.00137692
1546.0000	0.00137833
1545.5000	0.00137938
1545.0000	0.00137981
1544.5000	0.00137829
1544.0000	0.00137682
1543.5000	0.0013734
1543.0000	0.00137159
1542.5000	0.00137343
1542.0000	0.00137667
1541.5000	0.0013805
1541.0000	0.00138292
1540.5000	0.00138625
1540.0000	0.00138821
1539.5000	0.00138878
1539.0000	0.00138703
1538.5000	0.00138318
1538.0000	0.00138073
1537.5000	0.00138126
1537.0000	0.00138322
1536.5000	0.00138602
1536.0000	0.00138835
1535.5000	0.00139242
1535.0000	0.00139526
1534.5000	0.00139547
1534.0000	0.00139508
1533.5000	0.00139136
1533.0000	0.00138881
1532.5000	0.0013874
1532.0000	0.00138778
1531.5000	0.00138893
1531.0000	0.00139158
1530.5000	0.00139634
1530.0000	0.00140097
1529.5000	0.00140344
1529.0000	0.00140346
1528.5000	0.00140218
1528.0000	0.00139899
1527.5000	0.00139883
1527.0000	0.00139995
1526.5000	0.00140099
1526.0000	0.00140357
1525.5000	0.00140755
1525.0000	0.00141195
1524.5000	0.00141312
1524.0000	0.00141267
1523.5000	0.00141006
1523.0000	0.00140735
1522.5000	0.00140572
1522.0000	0.00140444
1521.5000	0.00140459
1521.0000	0.00140605
1520.5000	0.00140836
1520.0000	0.00141029
1519.5000	0.00141108
1519.0000	0.00140925
1518.5000	0.0014053
1518.0000	0.00140058
1517.5000	0.00139712
1517.0000	0.00139418
1516.5000	0.00139412
1516.0000	0.00139524
1515.5000	0.00139951
1515.0000	0.0014019
1514.5000	0.00140258
1514.0000	0.00140105
1513.5000	0.00139805
1513.0000	0.00139602
1512.5000	0.00139426
1512.0000	0.00139411
1511.5000	0.00139494
1511.0000	0.00139634
1510.5000	0.00139939
1510.0000	0.00140242
1509.5000	0.00140327
1509.0000	0.00140156
1508.5000	0.00139936
1508.0000	0.00139707
1507.5000	0.00139471
1507.0000	0.00139337
1506.5000	0.00139391
1506.0000	0.00139824
1505.5000	0.00140151
1505.0000	0.00140429
1504.5000	0.001405
1504.0000	0.00140456
1503.5000	0.00140086
1503.0000	0.00139745
1502.5000	0.00139741
1502.0000	0.00139918
1501.5000	0.00140309
1501.0000	0.00140885
1500.5000	0.00141428
1500.0000	0.00141852
1499.5000	0.00142131
1499.0000	0.00142123
1498.5000	0.00141875
1498.0000	0.00141735
1497.5000	0.00141706
1497.0000	0.00141773
1496.5000	0.0014193
1496.0000	0.00142315
1495.5000	0.00142623
1495.0000	0.00142835
1494.5000	0.00142873
1494.0000	0.00142603
1493.5000	0.00142102
1493.0000	0.0014147
1492.5000	0.00141124
1492.0000	0.00140894
1491.5000	0.00141022
1491.0000	0.00141309
1490.5000	0.0014179
1490.0000	0.00142007
1489.5000	0.00142182
1489.0000	0.00141971
1488.5000	0.00141468
1488.0000	0.00140936
1487.5000	0.00140678
1487.0000	0.0014071
1486.5000	0.00140771
1486.0000	0.00140979
1485.5000	0.00141138
1485.0000	0.00141327
1484.5000	0.00141183
1484.0000	0.00140719
1483.5000	0.00139959
1483.0000	0.00139313
1482.5000	0.00138874
1482.0000	0.00138573
1481.5000	0.00138637
1481.0000	0.00138703
1480.5000	0.00138872
1480.0000	0.00138921
1479.5000	0.00138806
1479.0000	0.00138335
1478.5000	0.00137548
1478.0000	0.00136903
1477.5000	0.00136649
1477.0000	0.00136835
1476.5000	0.00137032
1476.0000	0.00137338
1475.5000	0.0013763
1475.0000	0.00137837
1474.5000	0.00137607
1474.0000	0.00137192
1473.5000	0.00136551
1473.0000	0.00136153
1472.5000	0.00136111
1472.0000	0.00136441
1471.5000	0.00136826
1471.0000	0.00137115
1470.5000	0.00137431
1470.0000	0.00137604
1469.5000	0.00137643
1469.0000	0.00137293
1468.5000	0.00137057
1468.0000	0.00137031
1467.5000	0.00137252
1467.0000	0.0013771
1466.5000	0.00138053
1466.0000	0.0013839
1465.5000	0.00138462
1465.0000	0.0013853
1464.5000	0.0013854
1464.0000	0.00138416
1463.5000	0.00138424
1463.0000	0.00138824
1462.5000	0.00139502
1462.0000	0.00140211
1461.5000	0.00140764
1461.0000	0.0014113
1460.5000	0.00141476
1460.0000	0.00141607
1459.5000	0.0014183
1459.0000	0.00141873
1458.5000	0.00141976
1458.0000	0.00142167
1457.5000	0.00142634
1457.0000	0.00143044
1456.5000	0.00143295
1456.0000	0.00143351
1455.5000	0.00143259
1455.0000	0.00143347
1454.5000	0.00143357
1454.0000	0.00143409
1453.5000	0.00143482
1453.0000	0.0014365
1452.5000	0.00143801
1452.0000	0.0014384
1451.5000	0.00143499
1451.0000	0.00142986
1450.5000	0.00142621
1450.0000	0.00142415
1449.5000	0.00142358
1449.0000	0.00142276
1448.5000	0.00142115
1448.0000	0.00141876
1447.5000	0.00141577
1447.0000	0.00141045
1446.5000	0.00140351
1446.0000	0.00139606
1445.5000	0.00139085
1445.0000	0.00138732
1444.5000	0.00138441
1444.0000	0.00138223
1443.5000	0.00137859
1443.0000	0.00137354
1442.5000	0.00136821
1442.0000	0.00136267
1441.5000	0.00135458
1441.0000	0.00134872
1440.5000	0.0013451
1440.0000	0.0013435
1439.5000	0.00134307
1439.0000	0.00134045
1438.5000	0.0013363
1438.0000	0.00133012
1437.5000	0.00132267
1437.0000	0.00131657
1436.5000	0.00131266
1436.0000	0.00131057
1435.5000	0.00131146
1435.0000	0.001315
1434.5000	0.00131746
1434.0000	0.00131704
1433.5000	0.00131321
1433.0000	0.00131007
1432.5000	0.00130781
1432.0000	0.00130704
1431.5000	0.00130824
1431.0000	0.001312
1430.5000	0.0013174
1430.0000	0.00132303
1429.5000	0.00132537
1429.0000	0.00132441
1428.5000	0.00132234
1428.0000	0.00132162
1427.5000	0.00132075
1427.0000	0.0013238
1426.5000	0.0013303
1426.0000	0.00133836
1425.5000	0.00134655
1425.0000	0.00135149
1424.5000	0.00135323
1424.0000	0.00135304
1423.5000	0.00135444
1423.0000	0.00135756
1422.5000	0.00136236
1422.0000	0.00136905
1421.5000	0.00137717
1421.0000	0.00138421
1420.5000	0.00138866
1420.0000	0.00139004
1419.5000	0.00138927
1419.0000	0.00138668
1418.5000	0.00138754
1418.0000	0.00139082
1417.5000	0.00139467
1417.0000	0.00139799
1416.5000	0.0013997
1416.0000	0.00140189
1415.5000	0.00139881
1415.0000	0.00139387
1414.5000	0.00138837
1414.0000	0.00138496
1413.5000	0.00138553
1413.0000	0.00138596
1412.5000	0.0013882
1412.0000	0.00138868
1411.5000	0.00138831
1411.0000	0.0013843
1410.5000	0.00137725
1410.0000	0.00137121
1409.5000	0.0013679
1409.0000	0.00136832
1408.5000	0.00136966
1408.0000	0.00136877
1407.5000	0.00136918
1407.0000	0.00136411
1406.5000	0.00135686
1406.0000	0.00135057
1405.5000	0.00134555
1405.0000	0.00134302
1404.5000	0.00133817
1404.0000	0.00133701
1403.5000	0.00133647
1403.0000	0.0013336
1402.5000	0.0013277
1402.0000	0.00132063
1401.5000	0.00131688
1401.0000	0.00131466
1400.5000	0.00131494
1400.0000	0.00131405
1399.5000	0.00131576
1399.0000	0.00132118
1398.5000	0.0013224
1398.0000	0.00132035
1397.5000	0.00131732
1397.0000	0.00131776
1396.5000	0.00131854
1396.0000	0.00131787
1395.5000	0.00131708
1395.0000	0.00132022
1394.5000	0.00132261
1394.0000	0.00132409
1393.5000	0.00132356
1393.0000	0.00131947
1392.5000	0.00131841
1392.0000	0.00132236
1391.5000	0.00132118
1391.0000	0.00132017
1390.5000	0.00132228
1390.0000	0.00132358
1389.5000	0.00132422
1389.0000	0.00132228
1388.5000	0.00132009
1388.0000	0.00132045
1387.5000	0.00132189
1387.0000	0.00132566
1386.5000	0.00132784
1386.0000	0.00132881
1385.5000	0.00133013
1385.0000	0.00133157
1384.5000	0.00133352
1384.0000	0.00133234
1383.5000	0.00133242
1383.0000	0.00133111
1382.5000	0.00133492
1382.0000	0.00133853
1381.5000	0.00133991
1381.0000	0.00134445
1380.5000	0.00134434
1380.0000	0.00134722
1379.5000	0.00135285
1379.0000	0.00135616
1378.5000	0.00135907
1378.0000	0.00135757
1377.5000	0.00135936
1377.0000	0.00136014
1376.5000	0.00135941
1376.0000	0.00135994
1375.5000	0.00136119
1375.0000	0.00136801
1374.5000	0.0013717
1374.0000	0.00137607
1373.5000	0.00138047
1373.0000	0.00138404
1372.5000	0.00139068
1372.0000	0.00139418
1371.5000	0.00139724
1371.0000	0.00140382
1370.5000	0.00140596
1370.0000	0.00141023
1369.5000	0.00141224
1369.0000	0.00141186
1368.5000	0.00141057
1368.0000	0.00141241
1367.5000	0.00141225
1367.0000	0.00141296
1366.5000	0.00141269
1366.0000	0.00141206
1365.5000	0.00141124
1365.0000	0.00140505
1364.5000	0.00140239
1364.0000	0.00139882
1363.5000	0.00139483
1363.0000	0.00139065
1362.5000	0.00138822
1362.0000	0.00138819
1361.5000	0.0013831
1361.0000	0.00138111
1360.5000	0.00137837
1360.0000	0.00137478
1359.5000	0.00137289
1359.0000	0.00136844
1358.5000	0.00136549
1358.0000	0.00135948
1357.5000	0.0013516
1357.0000	0.00134323
1356.5000	0.00133689
1356.0000	0.00133068
1355.5000	0.00132644
1355.0000	0.00131967
1354.5000	0.00132081
1354.0000	0.00131847
1353.5000	0.0013155
1353.0000	0.00131411
1352.5000	0.00131207
1352.0000	0.00131147
1351.5000	0.00131195
1351.0000	0.00131111
1350.5000	0.00130948
1350.0000	0.00130928
1349.5000	0.00130911
1349.0000	0.00130801
1348.5000	0.00130824
1348.0000	0.00130965
1347.5000	0.00130997
1347.0000	0.00131155
1346.5000	0.00131222
1346.0000	0.00131403
1345.5000	0.00131596
1345.0000	0.00131664
1344.5000	0.00131704
1344.0000	0.00131537
1343.5000	0.00131513
1343.0000	0.00131636
1342.5000	0.00131898
1342.0000	0.00132047
1341.5000	0.00132121
1341.0000	0.00132356
1340.5000	0.00132473
1340.0000	0.00132663
1339.5000	0.00132763
1339.0000	0.00132676
1338.5000	0.00132712
1338.0000	0.0013301
1337.5000	0.00133289
1337.0000	0.00133416
1336.5000	0.00133559
1336.0000	0.00133745
1335.5000	0.00134118
1335.0000	0.00134266
1334.5000	0.00134432
1334.0000	0.00134542
1333.5000	0.00134717
1333.0000	0.00135054
1332.5000	0.00135332
1332.0000	0.00135522
1331.5000	0.00135663
1331.0000	0.00135734
1330.5000	0.001359
1330.0000	0.00136032
1329.5000	0.00136236
1329.0000	0.00136489
1328.5000	0.00136929
1328.0000	0.00137246
1327.5000	0.0013746
1327.0000	0.00137531
1326.5000	0.00137538
1326.0000	0.00137645
1325.5000	0.00138071
1325.0000	0.0013844
1324.5000	0.00138741
1324.0000	0.00138786
1323.5000	0.0013897
1323.0000	0.0013914
1322.5000	0.00139186
1322.0000	0.00139207
1321.5000	0.00139451
1321.0000	0.00139672
1320.5000	0.00139803
1320.0000	0.00139933
1319.5000	0.00139853
1319.0000	0.00139689
1318.5000	0.00139657
1318.0000	0.00139802
1317.5000	0.00139971
1317.0000	0.00140077
1316.5000	0.00140141
1316.0000	0.00140261
1315.5000	0.00140258
1315.0000	0.0014033
1314.5000	0.00140291
1314.0000	0.0014044
1313.5000	0.00140648
1313.0000	0.0014098
1312.5000	0.00141067
1312.0000	0.0014099
1311.5000	0.00140878
1311.0000	0.00140931
1310.5000	0.00141011
1310.0000	0.00141137
1309.5000	0.00141201
1309.0000	0.00141312
1308.5000	0.00141374
1308.0000	0.00141447
1307.5000	0.00141298
1307.0000	0.00141199
1306.5000	0.00141183
1306.0000	0.00141364
1305.5000	0.00141446
1305.0000	0.00141451
1304.5000	0.00141449
1304.0000	0.00141415
1303.5000	0.00141354
1303.0000	0.0014159
1302.5000	0.00141738
1302.0000	0.00141735
1301.5000	0.00141886
1301.0000	0.00141889
1300.5000	0.00141886
1300.0000	0.00141666
1299.5000	0.00141604
1299.0000	0.00141577
1298.5000	0.00141704
1298.0000	0.00141772
1297.5000	0.00141659
1297.0000	0.00141468
1296.5000	0.00141343
1296.0000	0.00141365
1295.5000	0.0014156
1295.0000	0.00141671
1294.5000	0.00141683
1294.0000	0.00141782
1293.5000	0.00141699
1293.0000	0.00141641
1292.5000	0.00141486
1292.0000	0.00141431
1291.5000	0.00141458
1291.0000	0.00141707
1290.5000	0.00141966
1290.0000	0.00141926
1289.5000	0.00141738
1289.0000	0.00141729
1288.5000	0.00141883
1288.0000	0.00142001
1287.5000	0.0014222
1287.0000	0.00142335
1286.5000	0.00142434
1286.0000	0.00142658
1285.5000	0.00142679
1285.0000	0.00142741
1284.5000	0.00142975
1284.0000	0.00143299
1283.5000	0.00143684
1283.0000	0.00143949
1282.5000	0.00144036
1282.0000	0.0014399
1281.5000	0.00144026
1281.0000	0.00144102
1280.5000	0.00144285
1280.0000	0.00144494
1279.5000	0.00144549
1279.0000	0.00144681
1278.5000	0.00144826
1278.0000	0.00144878
1277.5000	0.00144957
1277.0000	0.00145081
1276.5000	0.00145342
1276.0000	0.00145707
1275.5000	0.00145979
1275.0000	0.00145954
1274.5000	0.0014587
1274.0000	0.00145824
1273.5000	0.00145999
1273.0000	0.001463
1272.5000	0.00146458
1272.0000	0.00146651
1271.5000	0.00146684
1271.0000	0.0014679
1270.5000	0.0014676
1270.0000	0.00146727
1269.5000	0.00146788
1269.0000	0.00147007
1268.5000	0.00147081
1268.0000	0.00147237
1267.5000	0.0014727
1267.0000	0.00147111
1266.5000	0.00147155
1266.0000	0.00147338
1265.5000	0.00147481
1265.0000	0.00147627
1264.5000	0.00147617
1264.0000	0.00147635
1263.5000	0.00147628
1263.0000	0.00147583
1262.5000	0.00147523
1262.0000	0.00147548
1261.5000	0.0014764
1261.0000	0.00147737
1260.5000	0.00147879
1260.0000	0.00147803
1259.5000	0.00147881
1259.0000	0.00148026
1258.5000	0.00148173
1258.0000	0.00148373
1257.5000	0.00148452
1257.0000	0.00148477
1256.5000	0.00148598
1256.0000	0.00148663
1255.5000	0.00148713
1255.0000	0.00148694
1254.5000	0.00148778
1254.0000	0.00148825
1253.5000	0.00148988
1253.0000	0.00149159
1252.5000	0.00149262
1252.0000	0.00149262
1251.5000	0.00149196
1251.0000	0.00149383
1250.5000	0.00149418
1250.0000	0.00149442
1249.5000	0.00149556
1249.0000	0.00149724
1248.5000	0.0014996
1248.0000	0.00150028
1247.5000	0.00150033
1247.0000	0.00149933
1246.5000	0.00149995
1246.0000	0.00150155
1245.5000	0.00150234
1245.0000	0.00150191
1244.5000	0.00150055
1244.0000	0.00149962
1243.5000	0.00149747
1243.0000	0.00149764
1242.5000	0.00149791
1242.0000	0.00149851
1241.5000	0.00149841
1241.0000	0.00149821
1240.5000	0.00149656
1240.0000	0.00149538
1239.5000	0.00149423
1239.0000	0.00149412
1238.5000	0.00149474
1238.0000	0.00149453
1237.5000	0.001493
1237.0000	0.00149014
1236.5000	0.00148907
1236.0000	0.00148849
1235.5000	0.00148902
1235.0000	0.001489
1234.5000	0.00148975
1234.0000	0.0014885
1233.5000	0.00148797
1233.0000	0.00148731
1232.5000	0.0014872
1232.0000	0.00148803
1231.5000	0.00148987
1231.0000	0.00149253
1230.5000	0.00149254
1230.0000	0.00149205
1229.5000	0.00149229
1229.0000	0.00149414
1228.5000	0.00149672
1228.0000	0.00149957
1227.5000	0.00150188
1227.0000	0.00150278
1226.5000	0.00150265
1226.0000	0.00150343
1225.5000	0.00150451
1225.0000	0.00150526
1224.5000	0.00150703
1224.0000	0.00150813
1223.5000	0.00151082
1223.0000	0.00151211
1222.5000	0.0015134
1222.0000	0.00151486
1221.5000	0.00151725
1221.0000	0.00152017
1220.5000	0.00152166
1220.0000	0.00152274
1219.5000	0.00152287
1219.0000	0.001524
1218.5000	0.00152475
1218.0000	0.00152708
1217.5000	0.00152872
1217.0000	0.00152949
1216.5000	0.00153031
1216.0000	0.00153115
1215.5000	0.001532
1215.0000	0.00153153
1214.5000	0.00153249
1214.0000	0.00153372
1213.5000	0.0015347
1213.0000	0.0015351
1212.5000	0.00153534
1212.0000	0.00153569
1211.5000	0.00153797
1211.0000	0.00153976
1210.5000	0.00154126
1210.0000	0.0015419
1209.5000	0.00154243
1209.0000	0.00154452
1208.5000	0.00154535
1208.0000	0.00154696
1207.5000	0.00154753
1207.0000	0.00154863
1206.5000	0.00154915
1206.0000	0.00155001
1205.5000	0.00155048
1205.0000	0.00155148
1204.5000	0.00155132
1204.0000	0.00155168
1203.5000	0.00155319
1203.0000	0.00155346
1202.5000	0.00155339
1202.0000	0.00155411
1201.5000	0.0015543
1201.0000	0.00155661
1200.5000	0.00155752
1200.0000	0.00158865
1199.5000	0.00159089
1199.0000	0.00159176
1198.5000	0.00159249
1198.0000	0.00159472
1197.5000	0.0015967
1197.0000	0.00159925
1196.5000	0.00160008
1196.0000	0.00160275
1195.5000	0.00160435
1195.0000	0.00160827
1194.5000	0.00160997
1194.0000	0.00161109
1193.5000	0.0016116
1193.0000	0.00161433
1192.5000	0.00161436
1192.0000	0.00161725
1191.5000	0.00161849
1191.0000	0.00162002
1190.5000	0.0016209
1190.0000	0.00162345
1189.5000	0.00162437
1189.0000	0.00162632
1188.5000	0.00162803
1188.0000	0.00162925
1187.5000	0.00162997
1187.0000	0.00163358
1186.5000	0.00163544
1186.0000	0.00163813
1185.5000	0.00163945
1185.0000	0.00164227
1184.5000	0.00164256
1184.0000	0.00164492
1183.5000	0.00164562
1183.0000	0.00164865
1182.5000	0.00165039
1182.0000	0.00165233
1181.5000	0.00165182
1181.0000	0.00165442
1180.5000	0.00165731
1180.0000	0.0016603
1179.5000	0.00166091
1179.0000	0.00166112
1178.5000	0.00166171
1178.0000	0.00166453
1177.5000	0.00166641
1177.0000	0.00166892
1176.5000	0.00167182
1176.0000	0.00167465
1175.5000	0.00167613
1175.0000	0.00167993
1174.5000	0.00168327
1174.0000	0.00168838
1173.5000	0.00169356
1173.0000	0.00169886
1172.5000	0.00170419
1172.0000	0.00171029
1171.5000	0.00171475
1171.0000	0.00172067
1170.5000	0.0017264
1170.0000	0.00173394
1169.5000	0.00174015
1169.0000	0.00174803
1168.5000	0.00175636
1168.0000	0.00176639
1167.5000	0.00177705
1167.0000	0.00178984
1166.5000	0.00180392
1166.0000	0.00181818
1165.5000	0.00183614
1165.0000	0.00185382
1164.5000	0.00187307
1164.0000	0.00189411
1163.5000	0.00191826
1163.0000	0.00194478
1162.5000	0.00197308
1162.0000	0.00200322
1161.5000	0.00203559
1161.0000	0.00206837
1160.5000	0.00210519
1160.0000	0.00214203
1159.5000	0.00218378
1159.0000	0.00222426
1158.5000	0.0022697
1158.0000	0.00231306
1157.5000	0.0023609
1157.0000	0.00240831
1156.5000	0.00245931
1156.0000	0.00250956
1155.5000	0.00256332
1155.0000	0.00261435
1154.5000	0.00266773
1154.0000	0.00271969
1153.5000	0.00277303
1153.0000	0.00282592
1152.5000	0.0028783
1152.0000	0.00292831
1151.5000	0.00297454
1151.0000	0.00301934
1150.5000	0.00305648
1150.0000	0.00309361
1149.5000	0.00311921
1149.0000	0.0031442
1148.5000	0.00315548
1148.0000	0.00316731
1147.5000	0.00316369
1147.0000	0.00316013
1146.5000	0.00313718
1146.0000	0.00311214
1145.5000	0.00306402
1145.0000	0.00301857
1144.5000	0.00294248
1144.0000	0.00286961
1143.5000	0.00276659
1143.0000	0.00266754
1142.5000	0.00253005
1142.0000	0.00240194
1141.5000	0.00223371
1141.0000	0.00207418
1140.5000	0.00187904
1140.0000	0.0017042
1139.5000	0.00149448
1139.0000	0.00131134
1138.5000	0.00110361
1138.0000	0.000921429
1137.5000	0.000725372
1137.0000	0.000568791
1136.5000	0.000400305
1136.0000	0.000276711
1135.5000	0.000146793
1135.0000	5.27758E-005
1134.5000	-4.1864E-005
1134.0000	-9.77498E-005
1133.5000	-0.000150418
1133.0000	-0.000179119
1132.5000	-0.000204147
1132.0000	-0.000206178
1131.5000	-0.000207396
1131.0000	-0.000190247
1130.5000	-0.000170392
1130.0000	-0.000133309
1129.5000	-9.93962E-005
1129.0000	-5.79431E-005
1128.5000	-1.70725E-005
1128.0000	3.0703E-005
1127.5000	7.56391E-005
1127.0000	0.00012397
1126.5000	0.000170527
1126.0000	0.000221787
1125.5000	0.000272854
1125.0000	0.000328351
1124.5000	0.000382206
1124.0000	0.00043616
1123.5000	0.000493688
1123.0000	0.000551759
1122.5000	0.000611454
1122.0000	0.000672434
1121.5000	0.000731964
1121.0000	0.000788167
1120.5000	0.000845313
1120.0000	0.000897954
1119.5000	0.000950845
1119.0000	0.00100045
1118.5000	0.00104883
1118.0000	0.00109142
1117.5000	0.00113322
1117.0000	0.00117224
1116.5000	0.00120929
1116.0000	0.00124145
1115.5000	0.00127287
1115.0000	0.00130176
1114.5000	0.00132642
1114.0000	0.00134888
1113.5000	0.00137064
1113.0000	0.00139145
1112.5000	0.00140977
1112.0000	0.00142678
1111.5000	0.00144226
1111.0000	0.0014574
1110.5000	0.00147086
1110.0000	0.00148277
1109.5000	0.00149327
1109.0000	0.00150371
1108.5000	0.00151295
1108.0000	0.00152346
1107.5000	0.00153065
1107.0000	0.00153792
1106.5000	0.00154433
1106.0000	0.00155142
1105.5000	0.00155609
1105.0000	0.00156235
1104.5000	0.00156686
1104.0000	0.00157089
1103.5000	0.00157518
1103.0000	0.00157968
1102.5000	0.00158252
1102.0000	0.00158708
1101.5000	0.00158986
1101.0000	0.00159507
1100.5000	0.00159758
1100.0000	0.00160281
1099.5000	0.00160552
1099.0000	0.00160942
1098.5000	0.00161278
1098.0000	0.00161627
1097.5000	0.00161672
1097.0000	0.00161925
1096.5000	0.00162009
1096.0000	0.00162463
1095.5000	0.0016253
1095.0000	0.00162861
1094.5000	0.00162948
1094.0000	0.00163349
1093.5000	0.00163496
1093.0000	0.00163792
1092.5000	0.00163832
1092.0000	0.00164078
1091.5000	0.00164061
1091.0000	0.00164416
1090.5000	0.00164491
1090.0000	0.0016479
1089.5000	0.00164837
1089.0000	0.00165132
1088.5000	0.0016519
1088.0000	0.00165632
1087.5000	0.00165741
1087.0000	0.00166092
1086.5000	0.00166228
1086.0000	0.00166545
1085.5000	0.00166508
1085.0000	0.00166761
1084.5000	0.00166667
1084.0000	0.00166954
1083.5000	0.00166981
1083.0000	0.00167241
1082.5000	0.00167143
1082.0000	0.00167305
1081.5000	0.00167356
1081.0000	0.00167744
1080.5000	0.00167965
1080.0000	0.00168252
1079.5000	0.00168342
1079.0000	0.00168581
1078.5000	0.00168541
1078.0000	0.00168871
1077.5000	0.00168847
1077.0000	0.00169113
1076.5000	0.00169011
1076.0000	0.00169243
1075.5000	0.00169327
1075.0000	0.00169602
1074.5000	0.001695
1074.0000	0.00169641
1073.5000	0.00169596
1073.0000	0.00169878
1072.5000	0.0016984
1072.0000	0.00169944
1071.5000	0.00169672
1071.0000	0.00169773
1070.5000	0.00169649
1070.0000	0.00169888
1069.5000	0.00169797
1069.0000	0.00169923
1068.5000	0.00169848
1068.0000	0.00170104
1067.5000	0.00169973
1067.0000	0.00170102
1066.5000	0.00169966
1066.0000	0.00170283
1065.5000	0.00170125
1065.0000	0.0017027
1064.5000	0.0016986
1064.0000	0.00169903
1063.5000	0.00169675
1063.0000	0.00169973
1062.5000	0.00169925
1062.0000	0.00169971
1061.5000	0.00169729
1061.0000	0.00169854
1060.5000	0.00169848
1060.0000	0.00170068
1059.5000	0.00169869
1059.0000	0.00170049
1058.5000	0.00169898
1058.0000	0.00170201
1057.5000	0.00170127
1057.0000	0.00170253
1056.5000	0.00170106
1056.0000	0.00170378
1055.5000	0.00170327
1055.0000	0.00170535
1054.5000	0.00170371
1054.0000	0.00170515
1053.5000	0.00170495
1053.0000	0.00170883
1052.5000	0.00170751
1052.0000	0.00170889
1051.5000	0.00170708
1051.0000	0.00171026
1050.5000	0.0017097
1050.0000	0.00171218
1049.5000	0.00171136
1049.0000	0.00171462
1048.5000	0.0017153
1048.0000	0.00171902
1047.5000	0.00171734
1047.0000	0.00171901
1046.5000	0.00171778
1046.0000	0.00172057
1045.5000	0.00171954
1045.0000	0.00172176
1044.5000	0.00171854
1044.0000	0.00172155
1043.5000	0.00172139
1043.0000	0.00172366
1042.5000	0.00172163
1042.0000	0.00172262
1041.5000	0.00172182
1041.0000	0.00172509
1040.5000	0.00172304
1040.0000	0.00172526
1039.5000	0.00172397
1039.0000	0.00172797
1038.5000	0.00172616
1038.0000	0.00172862
1037.5000	0.00172513
1037.0000	0.00172616
1036.5000	0.00172554
1036.0000	0.00172869
1035.5000	0.00172756
1035.0000	0.00173018
1034.5000	0.00172906
1034.0000	0.00173081
1033.5000	0.00172971
1033.0000	0.00173039
1032.5000	0.00172779
1032.0000	0.00173062
1031.5000	0.00172779
1031.0000	0.00172948
1030.5000	0.0017264
1030.0000	0.00172893
1029.5000	0.00172757
1029.0000	0.00173081
1028.5000	0.0017305
1028.0000	0.00173253
1027.5000	0.00173044
1027.0000	0.00173237
1026.5000	0.00173153
1026.0000	0.00173363
1025.5000	0.00173166
1025.0000	0.00173392
1024.5000	0.00173198
1024.0000	0.00173499
1023.5000	0.00173216
1023.0000	0.00173481
1022.5000	0.0017335
1022.0000	0.00173612
1021.5000	0.00173394
1021.0000	0.00173689
1020.5000	0.00173405
1020.0000	0.00173523
1019.5000	0.00173135
1019.0000	0.00173257
1018.5000	0.00172973
1018.0000	0.0017323
1017.5000	0.00172864
1017.0000	0.00173138
1016.5000	0.00172957
1016.0000	0.00173239
1015.5000	0.00173049
1015.0000	0.00173342
1014.5000	0.00173231
1014.0000	0.00173436
1013.5000	0.00173155
1013.0000	0.00173347
1012.5000	0.00173012
1012.0000	0.00173305
1011.5000	0.00173126
1011.0000	0.00173455
1010.5000	0.00173142
1010.0000	0.00173503
1009.5000	0.001732
1009.0000	0.00173558
1008.5000	0.00173342
1008.0000	0.00173509
1007.5000	0.00173278
1007.0000	0.00173391
1006.5000	0.00173111
1006.0000	0.00173435
1005.5000	0.00173282
1005.0000	0.00173558
1004.5000	0.0017337
1004.0000	0.00173651
1003.5000	0.00173674
1003.0000	0.00174043
1002.5000	0.00173653
1002.0000	0.00173976
1001.5000	0.00173964
1001.0000	0.00174355
1000.5000	0.00174104
1000.0000	0.00174186
999.5000	0.00174078
999.0000	0.00174402
998.5000	0.00174206
998.0000	0.00174543
997.5000	0.00174428
997.0000	0.00174782
996.5000	0.00174686
996.0000	0.00174926
995.5000	0.00174596
995.0000	0.00174993
994.5000	0.00174788
994.0000	0.00174994
993.5000	0.00174689
993.0000	0.00174874
992.5000	0.00174677
992.0000	0.00174909
991.5000	0.00174557
991.0000	0.00174861
990.5000	0.00174594
990.0000	0.00174907
989.5000	0.00174558
989.0000	0.00174727
988.5000	0.00174464
988.0000	0.00175
987.5000	0.00174577
987.0000	0.00174742
986.5000	0.00174504
986.0000	0.00174765
985.5000	0.00174369
985.0000	0.00174559
984.5000	0.00174257
984.0000	0.00174692
983.5000	0.00174532
983.0000	0.00174818
982.5000	0.0017441
982.0000	0.00174668
981.5000	0.00174399
981.0000	0.00174798
980.5000	0.00174413
980.0000	0.00174656
979.5000	0.00174509
979.0000	0.00174818
978.5000	0.00174677
978.0000	0.00175047
977.5000	0.00174811
977.0000	0.00175015
976.5000	0.00174723
976.0000	0.00175141
975.5000	0.00175065
975.0000	0.00175448
974.5000	0.00175327
974.0000	0.00175494
973.5000	0.00175307
973.0000	0.00175792
972.5000	0.00175559
972.0000	0.00175692
971.5000	0.00175528
971.0000	0.00176047
970.5000	0.00175745
970.0000	0.00175998
969.5000	0.00175542
969.0000	0.0017596
968.5000	0.00175653
968.0000	0.00175872
967.5000	0.00175546
967.0000	0.00175976
966.5000	0.001758
966.0000	0.00176091
965.5000	0.00175811
965.0000	0.00176132
964.5000	0.00175923
964.0000	0.00176346
963.5000	0.00176092
963.0000	0.00176352
962.5000	0.00175946
962.0000	0.00176157
961.5000	0.00175902
961.0000	0.00176239
960.5000	0.00175766
960.0000	0.0017622
959.5000	0.00175907
959.0000	0.00176278
958.5000	0.00175752
958.0000	0.00176167
957.5000	0.00175935
957.0000	0.00176258
956.5000	0.00175824
956.0000	0.00176105
955.5000	0.00175832
955.0000	0.0017616
954.5000	0.00175919
954.0000	0.00176343
953.5000	0.00176402
953.0000	0.0017676
952.5000	0.00176509
952.0000	0.00176921
951.5000	0.0017651
951.0000	0.00176847
950.5000	0.00176489
950.0000	0.00176964
949.5000	0.00176674
949.0000	0.00176981
948.5000	0.00176784
948.0000	0.00177198
947.5000	0.00176756
947.0000	0.00177122
946.5000	0.00176826
946.0000	0.00177526
945.5000	0.00177213
945.0000	0.0017766
944.5000	0.00177476
944.0000	0.00177828
943.5000	0.00177422
943.0000	0.00177911
942.5000	0.00177773
942.0000	0.00178359
941.5000	0.0017808
941.0000	0.00178563
940.5000	0.00178348
940.0000	0.00178943
939.5000	0.00178574
939.0000	0.00179155
938.5000	0.00178994
938.0000	0.00179633
937.5000	0.00179146
937.0000	0.00179595
936.5000	0.00179127
936.0000	0.00179513
935.5000	0.00179221
935.0000	0.00179674
934.5000	0.0017929
934.0000	0.00179811
933.5000	0.00179379
933.0000	0.00179902
932.5000	0.00179571
932.0000	0.00179948
931.5000	0.0017952
931.0000	0.00180001
930.5000	0.00179757
930.0000	0.00180247
929.5000	0.00179875
929.0000	0.00180332
928.5000	0.0018014
928.0000	0.00180563
927.5000	0.00180089
927.0000	0.00180623
926.5000	0.00180146
926.0000	0.00180541
925.5000	0.00179993
925.0000	0.00180412
924.5000	0.00179989
924.0000	0.00180369
923.5000	0.00180003
923.0000	0.00180363
922.5000	0.00179703
922.0000	0.00180075
921.5000	0.00179473
921.0000	0.00179905
920.5000	0.00179727
920.0000	0.00180481
919.5000	0.00180026
919.0000	0.00180589
918.5000	0.00180147
918.0000	0.00180578
917.5000	0.00180189
917.0000	0.00180653
916.5000	0.00179987
916.0000	0.00180777
915.5000	0.00180333
915.0000	0.0018091
914.5000	0.00180332
914.0000	0.00180783
913.5000	0.0018041
913.0000	0.00181079
912.5000	0.00180374
912.0000	0.00181076
911.5000	0.00180877
911.0000	0.00181161
910.5000	0.00180658
910.0000	0.0018123
909.5000	0.00180924
909.0000	0.00181374
908.5000	0.00180931
908.0000	0.0018153
907.5000	0.00180919
907.0000	0.00181446
906.5000	0.0018097
906.0000	0.00181543
905.5000	0.00181103
905.0000	0.00181674
904.5000	0.00181177
904.0000	0.00181466
903.5000	0.00181147
903.0000	0.00181755
902.5000	0.0018147
902.0000	0.00182081
901.5000	0.00181489
901.0000	0.00181978
900.5000	0.00181641
900.0000	0.00182016
899.5000	0.00181488
899.0000	0.00182227
898.5000	0.00181722
898.0000	0.00182403
897.5000	0.00181955
897.0000	0.00182596
896.5000	0.00182221
896.0000	0.00182711
895.5000	0.00182163
895.0000	0.00183043
894.5000	0.00182649
894.0000	0.00183442
893.5000	0.00182983
893.0000	0.001838
892.5000	0.00183598
892.0000	0.00184392
891.5000	0.00184456
891.0000	0.00185317
890.5000	0.00185444
890.0000	0.00186316
889.5000	0.00186663
889.0000	0.00187779
888.5000	0.00187715
888.0000	0.00188942
887.5000	0.00189137
887.0000	0.00190301
886.5000	0.00190238
886.0000	0.00191405
885.5000	0.00191654
885.0000	0.00192826
884.5000	0.00192815
884.0000	0.0019379
883.5000	0.00193709
883.0000	0.0019441
882.5000	0.00194458
882.0000	0.00195156
881.5000	0.00194796
881.0000	0.00195347
880.5000	0.00195057
880.0000	0.00195436
879.5000	0.00194918
879.0000	0.0019495
878.5000	0.00194541
878.0000	0.00194552
877.5000	0.00193576
877.0000	0.00193456
876.5000	0.00192065
876.0000	0.00192061
875.5000	0.00190253
875.0000	0.00189898
874.5000	0.0018831
874.0000	0.00187799
873.5000	0.00185667
873.0000	0.00184725
872.5000	0.00182972
872.0000	0.00182102
871.5000	0.00180205
871.0000	0.00178997
870.5000	0.00177317
870.0000	0.00176375
869.5000	0.00174581
869.0000	0.00174407
868.5000	0.00172759
868.0000	0.0017247
867.5000	0.00171312
867.0000	0.00171155
866.5000	0.00169636
866.0000	0.00169531
865.5000	0.00168525
865.0000	0.00168699
864.5000	0.00167946
864.0000	0.00168497
863.5000	0.00167901
863.0000	0.00168489
862.5000	0.00167893
862.0000	0.00168333
861.5000	0.00168078
861.0000	0.00169158
860.5000	0.00169113
860.0000	0.00169883
859.5000	0.00170458
859.0000	0.00171211
858.5000	0.00171302
858.0000	0.00172571
857.5000	0.00173047
857.0000	0.00174451
856.5000	0.00174835
856.0000	0.00175987
855.5000	0.00176035
855.0000	0.0017739
854.5000	0.00177438
854.0000	0.00178476
853.5000	0.00178521
853.0000	0.00178964
852.5000	0.00179022
852.0000	0.00179715
851.5000	0.00179666
851.0000	0.00180184
850.5000	0.00180116
850.0000	0.00223994
849.5000	0.00225467
849.0000	0.0022659
848.5000	0.00226792
848.0000	0.00226928
847.5000	0.00227166
847.0000	0.00226352
846.5000	0.00226631
846.0000	0.00225467
845.5000	0.00224464
845.0000	0.00225069
844.5000	0.00224345
844.0000	0.00225135
843.5000	0.00224547
843.0000	0.00224072
842.5000	0.00224713
842.0000	0.00225461
841.5000	0.00225764
841.0000	0.00226762
840.5000	0.00227772
840.0000	0.00225853
839.5000	0.00225372
839.0000	0.00226222
838.5000	0.00226287
838.0000	0.00225313
837.5000	0.00225622
837.0000	0.00224796
836.5000	0.00224719
836.0000	0.00226667
835.5000	0.00227077
835.0000	0.00226911
834.5000	0.00225913
834.0000	0.00225075
833.5000	0.0022362
833.0000	0.0022223
832.5000	0.00223109
832.0000	0.00222729
831.5000	0.00222931
831.0000	0.00223668
830.5000	0.00224398
830.0000	0.00225509
829.5000	0.00225604
829.0000	0.00225485
828.5000	0.00226406
828.0000	0.00226097
827.5000	0.00225396
827.0000	0.00225871
826.5000	0.00225224
826.0000	0.00224291
825.5000	0.00224184
825.0000	0.00223501
824.5000	0.00222307
824.0000	0.0022308
823.5000	0.0022387
823.0000	0.00223691
822.5000	0.00224594
822.0000	0.00224452
821.5000	0.00225485
821.0000	0.00226234
820.5000	0.00226447
820.0000	0.00225218
819.5000	0.00223691
819.0000	0.0022457
818.5000	0.00226144
818.0000	0.00226073
817.5000	0.00227166
817.0000	0.00228758
816.5000	0.00228853
816.0000	0.00230017
815.5000	0.00230552
815.0000	0.00229952
814.5000	0.00230071
814.0000	0.00229625
813.5000	0.00231062
813.0000	0.00230985
812.5000	0.00230843
812.0000	0.00231027
811.5000	0.00231609
811.0000	0.00233533
810.5000	0.00234098
810.0000	0.0023525
809.5000	0.00236675
809.0000	0.0023664
808.5000	0.0023759
808.0000	0.00238
807.5000	0.00238766
807.0000	0.0023974
806.5000	0.00240073
806.0000	0.00240952
805.5000	0.00241623
805.0000	0.0024129
804.5000	0.00240952
804.0000	0.00241486
803.5000	0.00243268
803.0000	0.00242698
802.5000	0.00243179
802.0000	0.00243833
801.5000	0.00243738
801.0000	0.00244201
800.5000	0.00244587
800.0000	0.00245193
799.5000	0.00244949
799.0000	0.00247141
798.5000	0.0024688
798.0000	0.00248002
797.5000	0.00247889
797.0000	0.00250117
796.5000	0.00251602
796.0000	0.00252124
795.5000	0.00252974
795.0000	0.00252237
794.5000	0.00253318
794.0000	0.00253734
793.5000	0.00253823
793.0000	0.00255029
792.5000	0.00256567
792.0000	0.00257612
791.5000	0.00258521
791.0000	0.0025807
790.5000	0.00258123
790.0000	0.0025829
789.5000	0.0025924
789.0000	0.00261681
788.5000	0.00262014
788.0000	0.0026332
787.5000	0.0026455
787.0000	0.00265298
786.5000	0.00266837
786.0000	0.00267959
785.5000	0.00268999
785.0000	0.00269801
784.5000	0.00272182
784.0000	0.00272123
783.5000	0.00273905
783.0000	0.00274754
782.5000	0.00276964
782.0000	0.00279078
781.5000	0.00280575
781.0000	0.00280248
780.5000	0.00280533
780.0000	0.00282535
779.5000	0.00283925
779.0000	0.00285125
778.5000	0.00285802
778.0000	0.00287411
777.5000	0.00288071
777.0000	0.00290061
776.5000	0.00291254
776.0000	0.00292413
775.5000	0.00293244
775.0000	0.00295323
774.5000	0.00296778
774.0000	0.0029742
773.5000	0.00299023
773.0000	0.00299997
772.5000	0.00302914
772.0000	0.00304286
771.5000	0.00306187
771.0000	0.0030896
770.5000	0.00310944
770.0000	0.00313605
769.5000	0.00315672
769.0000	0.00317626
768.5000	0.0031882
768.0000	0.00321837
767.5000	0.00323304
767.0000	0.00325686
766.5000	0.0032704
766.0000	0.00327724
765.5000	0.00330705
765.0000	0.00333402
764.5000	0.00336758
764.0000	0.0034006
763.5000	0.00342858
763.0000	0.00346802
762.5000	0.00350401
762.0000	0.00353294
761.5000	0.00357148
761.0000	0.00359649
760.5000	0.00363522
760.0000	0.00367347
759.5000	0.00370815
759.0000	0.00374635
758.5000	0.00379048
758.0000	0.00384845
757.5000	0.00388569
757.0000	0.00393297
756.5000	0.00397175
756.0000	0.00401725
755.5000	0.00407065
755.0000	0.00411401
754.5000	0.00414899
754.0000	0.00419847
753.5000	0.00425198
753.0000	0.0043055
752.5000	0.00435064
752.0000	0.00439643
751.5000	0.00446836
751.0000	0.00452099
750.5000	0.00457979
750.0000	0.00464447
749.5000	0.00470832
749.0000	0.00478132
748.5000	0.00484137
748.0000	0.00490451
747.5000	0.00497685
747.0000	0.00503987
746.5000	0.00511655
746.0000	0.0051902
745.5000	0.00527187
745.0000	0.00536192
744.5000	0.00543592
744.0000	0.00552193
743.5000	0.00560954
743.0000	0.00569358
742.5000	0.00577644
742.0000	0.00586221
741.5000	0.00595356
741.0000	0.00604307
740.5000	0.00613995
740.0000	0.00626693
739.5000	0.00637337
739.0000	0.00649163
738.5000	0.00659836
738.0000	0.00671335
737.5000	0.00683369
737.0000	0.00695343
736.5000	0.00708102
736.0000	0.00721537
735.5000	0.00735008
735.0000	0.00748384
734.5000	0.00763079
734.0000	0.00777417
733.5000	0.00791939
733.0000	0.00806473
732.5000	0.00821459
732.0000	0.00837947
731.5000	0.00853955
731.0000	0.008703
730.5000	0.00887513
730.0000	0.00905285
729.5000	0.00923187
729.0000	0.00942075
728.5000	0.00962079
728.0000	0.00981347
727.5000	0.0100236
727.0000	0.0102272
726.5000	0.010446
726.0000	0.0106643
725.5000	0.010899
725.0000	0.0111447
724.5000	0.0113749
724.0000	0.0116232
723.5000	0.0118781
723.0000	0.0121457
722.5000	0.0124182
722.0000	0.0126965
721.5000	0.0129822
721.0000	0.0132719
720.5000	0.0135602
720.0000	0.0138642
719.5000	0.014175
719.0000	0.0144986
718.5000	0.0148203
718.0000	0.0151607
717.5000	0.0155065
717.0000	0.0158608
716.5000	0.0162216
716.0000	0.0165962
715.5000	0.0169809
715.0000	0.017368
714.5000	0.0177639
714.0000	0.0181759
713.5000	0.0186038
713.0000	0.019033
712.5000	0.019473
712.0000	0.0199297
711.5000	0.0203857
711.0000	0.0208648
710.5000	0.0213488
710.0000	0.0218421
709.5000	0.0223445
709.0000	0.0228513
708.5000	0.023387
708.0000	0.0239307
707.5000	0.0244829
707.0000	0.0250392
706.5000	0.0256212
706.0000	0.0262067
705.5000	0.0268031
705.0000	0.0274196
704.5000	0.0280536
704.0000	0.0286975
703.5000	0.0293589
703.0000	0.0300214
702.5000	0.0306998
702.0000	0.03139
701.5000	0.0321065
701.0000	0.0328305
700.5000	0.0335679
700.0000	0.0343154
699.5000	0.035077
699.0000	0.0358553
698.5000	0.0366494
698.0000	0.0374526
697.5000	0.03827
697.0000	0.0391063
696.5000	0.0399438
696.0000	0.0407965
695.5000	0.0416532
695.0000	0.0425143
694.5000	0.0433707
694.0000	0.0442423
693.5000	0.0451147
693.0000	0.0459861
692.5000	0.0468544
692.0000	0.0477286
691.5000	0.0486128
691.0000	0.0495091
690.5000	0.0504221
690.0000	0.0513575
689.5000	0.0523095
689.0000	0.0532969
688.5000	0.0543017
688.0000	0.0553326
687.5000	0.0563822
687.0000	0.0574833
686.5000	0.0586209
686.0000	0.0597834
685.5000	0.0609679
685.0000	0.0621856
684.5000	0.0634306
684.0000	0.0646946
683.5000	0.0659539
683.0000	0.0672326
682.5000	0.0685178
682.0000	0.0698263
681.5000	0.0711497
681.0000	0.0724783
680.5000	0.073825
680.0000	0.0751592
679.5000	0.0765017
679.0000	0.077825
678.5000	0.0791518
678.0000	0.0804591
677.5000	0.0817391
677.0000	0.08301
676.5000	0.0842498
676.0000	0.0854665
675.5000	0.0866798
675.0000	0.0878756
674.5000	0.089068
674.0000	0.0902438
673.5000	0.091441
673.0000	0.0926293
672.5000	0.0938215
672.0000	0.0950203
671.5000	0.0962342
671.0000	0.0974524
670.5000	0.0986901
670.0000	0.0999497
669.5000	0.10122
669.0000	0.102495
668.5000	0.103768
668.0000	0.105031
667.5000	0.1063
667.0000	0.107559
666.5000	0.108808
666.0000	0.110037
665.5000	0.111251
665.0000	0.112464
664.5000	0.113664
664.0000	0.114863
663.5000	0.116048
663.0000	0.117226
662.5000	0.118393
662.0000	0.119548
661.5000	0.12069
661.0000	0.121825
660.5000	0.122953
660.0000	0.124057
659.5000	0.12515
659.0000	0.126237
658.5000	0.12729
658.0000	0.128343
657.5000	0.129369
657.0000	0.130385
656.5000	0.131386
656.0000	0.132377
655.5000	0.133357
655.0000	0.134319
654.5000	0.135262
654.0000	0.136181
653.5000	0.137075
653.0000	0.137961
652.5000	0.13883
652.0000	0.139678
651.5000	0.140511
651.0000	0.141319
650.5000	0.142119
650.0000	0.142899
649.5000	0.143662
649.0000	0.1444
648.5000	0.145116
648.0000	0.145809
647.5000	0.146488
647.0000	0.147155
646.5000	0.147805
646.0000	0.148435
645.5000	0.14905
645.0000	0.149646
644.5000	0.150208
644.0000	0.150775
643.5000	0.151312
643.0000	0.151825
642.5000	0.15233
642.0000	0.152814
641.5000	0.153289
641.0000	0.153726
640.5000	0.154164
640.0000	0.154587
639.5000	0.154983
639.0000	0.155365
638.5000	0.155732
638.0000	0.156086
637.5000	0.156421
637.0000	0.156745
636.5000	0.157051
636.0000	0.157342
635.5000	0.157608
635.0000	0.157877
634.5000	0.158118
634.0000	0.158352
633.5000	0.158575
633.0000	0.158782
632.5000	0.158973
632.0000	0.159146
631.5000	0.159317
631.0000	0.159469
630.5000	0.159611
630.0000	0.15974
629.5000	0.159855
629.0000	0.15996
628.5000	0.16006
628.0000	0.160144
627.5000	0.160214
627.0000	0.160271
626.5000	0.160318
626.0000	0.160356
625.5000	0.160384
625.0000	0.160417
624.5000	0.16043
624.0000	0.160433
623.5000	0.160425
623.0000	0.160415
622.5000	0.160391
622.0000	0.160355
621.5000	0.160317
621.0000	0.160258
620.5000	0.160202
620.0000	0.16028
619.5000	0.160204
619.0000	0.160128
618.5000	0.160042
618.0000	0.15995
617.5000	0.159853
617.0000	0.159744
616.5000	0.159623
616.0000	0.159511
615.5000	0.15937
615.0000	0.15923
614.5000	0.159077
614.0000	0.158923
613.5000	0.158766
613.0000	0.158604
612.5000	0.158435
612.0000	0.158265
611.5000	0.158077
611.0000	0.157893
610.5000	0.157701
610.0000	0.157505
609.5000	0.157297
609.0000	0.157096
608.5000	0.156873
608.0000	0.156661
607.5000	0.156437
607.0000	0.156204
606.5000	0.155965
606.0000	0.155724
605.5000	0.155476
605.0000	0.155232
604.5000	0.154981
604.0000	0.154724
603.5000	0.154453
603.0000	0.154179
602.5000	0.153901
602.0000	0.153602
601.5000	0.153303
601.0000	0.153001
600.5000	0.15271
600.0000	0.1524
599.5000	0.152094
599.0000	0.151777
598.5000	0.151461
598.0000	0.15113
597.5000	0.150803
597.0000	0.150457
596.5000	0.150111
596.0000	0.149759
595.5000	0.149408
595.0000	0.149037
594.5000	0.148677
594.0000	0.148297
593.5000	0.147915
593.0000	0.147523
592.5000	0.147127
592.0000	0.146717
591.5000	0.146307
591.0000	0.145888
590.5000	0.145484
590.0000	0.14506
589.5000	0.144631
589.0000	0.144183
588.5000	0.143728
588.0000	0.143271
587.5000	0.142822
587.0000	0.142364
586.5000	0.141893
586.0000	0.141418
585.5000	0.140945
585.0000	0.140461
584.5000	0.139968
584.0000	0.139471
583.5000	0.138968
583.0000	0.138456
582.5000	0.137946
582.0000	0.137433
581.5000	0.136914
581.0000	0.136394
580.5000	0.135861
580.0000	0.135321
579.5000	0.134781
579.0000	0.134238
578.5000	0.133687
578.0000	0.133147
577.5000	0.132604
577.0000	0.132047
576.5000	0.131489
576.0000	0.13093
575.5000	0.130365
575.0000	0.129815
574.5000	0.129233
574.0000	0.12865
573.5000	0.128074
573.0000	0.127495
572.5000	0.126917
572.0000	0.12634
571.5000	0.125749
571.0000	0.125156
570.5000	0.124564
570.0000	0.123979
569.5000	0.123379
569.0000	0.122783
568.5000	0.122178
568.0000	0.12158
567.5000	0.120977
567.0000	0.120383
566.5000	0.119774
566.0000	0.119164
565.5000	0.118547
565.0000	0.117933
564.5000	0.117316
564.0000	0.116708
563.5000	0.116091
563.0000	0.115472
562.5000	0.114853
562.0000	0.114237
561.5000	0.11362
561.0000	0.113012
560.5000	0.112391
560.0000	0.111783
559.5000	0.111158
559.0000	0.110533
558.5000	0.109924
558.0000	0.109317
557.5000	0.108699
557.0000	0.108096
556.5000	0.107489
556.0000	0.106873
555.5000	0.106258
555.0000	0.10565
554.5000	0.105036
554.0000	0.104429
553.5000	0.103822
553.0000	0.103219
552.5000	0.102617
552.0000	0.102012
551.5000	0.101419
551.0000	0.100817
550.5000	0.100219
550.0000	0.0996245
549.5000	0.099036
549.0000	0.0984496
548.5000	0.0978633
548.0000	0.097273
547.5000	0.0966815
547.0000	0.0961004
546.5000	0.0955263
546.0000	0.0949371
545.5000	0.0943628
545.0000	0.0937813
544.5000	0.0932141
544.0000	0.0926277
543.5000	0.0920669
543.0000	0.0914952
542.5000	0.0909213
542.0000	0.0903513
541.5000	0.0897814
541.0000	0.0892036
540.5000	0.0886359
540.0000	0.0880708
539.5000	0.0875165
539.0000	0.0869481
538.5000	0.0863918
538.0000	0.0858288
537.5000	0.0852729
537.0000	0.0847135
536.5000	0.0841601
536.0000	0.0836111
535.5000	0.0830525
535.0000	0.0825039
534.5000	0.081962
534.0000	0.0814125
533.5000	0.0808632
533.0000	0.0803205
532.5000	0.0797778
532.0000	0.0792393
531.5000	0.0786993
531.0000	0.0781557
530.5000	0.0776171
530.0000	0.0770798
529.5000	0.0765471
529.0000	0.0760143
528.5000	0.0754792
528.0000	0.0749608
527.5000	0.0744252
527.0000	0.0738999
526.5000	0.073372
526.0000	0.072846
525.5000	0.0723255
525.0000	0.0718109
524.5000	0.0712872
524.0000	0.0707723
523.5000	0.0702482
523.0000	0.0697365
522.5000	0.0692218
522.0000	0.0687144
521.5000	0.0682043
521.0000	0.0676973
520.5000	0.0671882
520.0000	0.0666897
519.5000	0.0661852
519.0000	0.0656843
518.5000	0.0651715
518.0000	0.0646749
517.5000	0.0641797
517.0000	0.0636899
516.5000	0.0632068
516.0000	0.0627202
515.5000	0.062234
515.0000	0.0617565
514.5000	0.0612631
514.0000	0.0607925
513.5000	0.0603143
513.0000	0.0598509
512.5000	0.0593762
512.0000	0.0589188
511.5000	0.0584538
511.0000	0.058
510.5000	0.0575432
510.0000	0.0572284
509.5000	0.0567653
509.0000	0.0563191
508.5000	0.0558758
508.0000	0.0554209
507.5000	0.0549893
507.0000	0.0545552
506.5000	0.0541182
506.0000	0.0536891
505.5000	0.0532719
505.0000	0.0528424
504.5000	0.052422
504.0000	0.0520102
503.5000	0.0515953
503.0000	0.0511889
502.5000	0.0507842
502.0000	0.0503852
501.5000	0.0499781
501.0000	0.0495815
500.5000	0.049187
500.0000	0.0488053
499.5000	0.0484206
499.0000	0.04805
498.5000	0.0476721
498.0000	0.0473057
497.5000	0.0469265
497.0000	0.0465587
496.5000	0.0461877
496.0000	0.0458439
495.5000	0.0454811
495.0000	0.0451396
494.5000	0.0447946
494.0000	0.0444661
493.5000	0.0441264
493.0000	0.0437986
492.5000	0.04346
492.0000	0.0431425
491.5000	0.0428127
491.0000	0.042508
490.5000	0.0421841
490.0000	0.0418908
489.5000	0.0415882
489.0000	0.0412963
488.5000	0.0409879
488.0000	0.040696
487.5000	0.0403989
487.0000	0.0401238
486.5000	0.0398531
486.0000	0.0395945
485.5000	0.0393345
485.0000	0.039092
484.5000	0.0388262
484.0000	0.0385867
483.5000	0.0383385
483.0000	0.0381027
482.5000	0.0378657
482.0000	0.037646
481.5000	0.0374251
481.0000	0.0372211
480.5000	0.0370109
480.0000	0.0368061
479.5000	0.036613
479.0000	0.0364188
478.5000	0.0362323
478.0000	0.0360556
477.5000	0.0358864
477.0000	0.0357252
476.5000	0.0355735
476.0000	0.0354217
475.5000	0.0352743
475.0000	0.0351282
474.5000	0.035003
474.0000	0.0348728
473.5000	0.0347429
473.0000	0.0346253
472.5000	0.0345327
472.0000	0.0344325
471.5000	0.0343499
471.0000	0.0342555
470.5000	0.0341651
470.0000	0.034073
469.5000	0.0339983
469.0000	0.0339188
468.5000	0.0338708
468.0000	0.0338028
467.5000	0.0337571
467.0000	0.0337065
466.5000	0.0336645
466.0000	0.0336247
465.5000	0.0335955
465.0000	0.0335613
464.5000	0.0335462
464.0000	0.0335216
463.5000	0.0334998
463.0000	0.0334833
462.5000	0.0334811
462.0000	0.0334694
461.5000	0.0334776
461.0000	0.0334826
460.5000	0.033493
460.0000	0.0335046
459.5000	0.0335267
459.0000	0.0335426
458.5000	0.0335752
458.0000	0.0335955
457.5000	0.0336429
457.0000	0.0336804
456.5000	0.0337189
456.0000	0.0337603
455.5000	0.0337947
455.0000	0.0338575
454.5000	0.0339135
454.0000	0.033983
453.5000	0.0340425
453.0000	0.0341222
452.5000	0.0341796
452.0000	0.0342688
451.5000	0.0343351
451.0000	0.0344305
450.5000	0.034509
450.0000	0.0345245
449.5000	0.0346165
449.0000	0.0347071
448.5000	0.0347987
448.0000	0.0349027
447.5000	0.0350013
447.0000	0.0351095
446.5000	0.0352236
446.0000	0.0353446
445.5000	0.0354671
445.0000	0.0355953
444.5000	0.0357218
444.0000	0.0358577
443.5000	0.0360074
443.0000	0.0361699
442.5000	0.036341
442.0000	0.0365205
441.5000	0.036707
441.0000	0.03689
440.5000	0.0370842
440.0000	0.0372832
439.5000	0.037501
439.0000	0.0377132
438.5000	0.0379494
438.0000	0.0381828
437.5000	0.0384381
437.0000	0.0387121
436.5000	0.0389767
436.0000	0.0392764
435.5000	0.0395718
435.0000	0.0398838
434.5000	0.0401956
434.0000	0.040531
433.5000	0.0408737
433.0000	0.0412258
432.5000	0.0415997
432.0000	0.0419862
431.5000	0.0424027
431.0000	0.0428324
430.5000	0.0432748
430.0000	0.0437369
429.5000	0.0442249
429.0000	0.0447297
428.5000	0.0452527
428.0000	0.0458104
427.5000	0.0463894
427.0000	0.0469897
426.5000	0.0476072
426.0000	0.0482669
425.5000	0.0489609
425.0000	0.0496923
424.5000	0.0504576
424.0000	0.0512693
423.5000	0.052117
423.0000	0.0530056
422.5000	0.0539255
422.0000	0.0548981
421.5000	0.0559221
421.0000	0.0569886
420.5000	0.0581045
420.0000	0.0592672
419.5000	0.0604907
419.0000	0.06177
418.5000	0.0631151
418.0000	0.0645117
417.5000	0.0659747
417.0000	0.0674943
416.5000	0.0690833
416.0000	0.0707407
415.5000	0.0724506
415.0000	0.0742376
414.5000	0.0760864
414.0000	0.078004
413.5000	0.0799762
413.0000	0.0820202
412.5000	0.0841275
412.0000	0.0862935
411.5000	0.0885347
411.0000	0.0908335
410.5000	0.0932098
410.0000	0.0958763
409.5000	0.0984891
409.0000	0.101169
408.5000	0.103934
408.0000	0.106782
407.5000	0.109711
407.0000	0.112719
406.5000	0.115816
406.0000	0.118996
405.5000	0.122255
405.0000	0.125556
404.5000	0.128952
404.0000	0.132424
403.5000	0.135934
403.0000	0.13952
402.5000	0.143165
402.0000	0.146876
401.5000	0.150616
401.0000	0.154407
400.5000	0.158193
400.0000	0.162012
399.5000	0.165858
399.0000	0.169701
398.5000	0.173523
398.0000	0.177355
397.5000	0.181175
397.0000	0.184957
396.5000	0.188725
396.0000	0.192456
395.5000	0.196154
395.0000	0.199792
394.5000	0.20337
394.0000	0.206867
393.5000	0.210312
393.0000	0.213685
392.5000	0.216987
392.0000	0.220185
391.5000	0.223281
391.0000	0.226269
390.5000	0.229166
390.0000	0.231981
389.5000	0.234684
389.0000	0.237277
388.5000	0.239773
388.0000	0.24215
387.5000	0.244465
387.0000	0.24667
386.5000	0.248786
386.0000	0.250766
385.5000	0.252656
385.0000	0.254422
384.5000	0.25609
384.0000	0.257642
383.5000	0.259129
383.0000	0.260503
382.5000	0.261797
382.0000	0.262972
381.5000	0.264084
381.0000	0.265111
380.5000	0.266074
380.0000	0.266943
379.5000	0.267738
379.0000	0.268464
378.5000	0.269141
378.0000	0.269747
377.5000	0.270303
377.0000	0.270777
376.5000	0.271206
376.0000	0.271564
375.5000	0.271851
375.0000	0.272086
374.5000	0.272278
374.0000	0.27236
373.5000	0.272431
373.0000	0.27244
372.5000	0.272404
372.0000	0.272335
371.5000	0.272201
371.0000	0.27199
370.5000	0.27171
370.0000	0.271276
369.5000	0.270973
369.0000	0.270582
368.5000	0.270155
368.0000	0.269675
367.5000	0.269067
367.0000	0.268416
366.5000	0.267695
366.0000	0.266932
365.5000	0.266138
365.0000	0.26527
364.5000	0.264342
364.0000	0.263377
363.5000	0.262339
363.0000	0.261276
362.5000	0.260117
362.0000	0.258895
361.5000	0.25768
361.0000	0.256461
360.5000	0.255143
360.0000	0.253803
359.5000	0.252421
359.0000	0.251034
358.5000	0.249556
358.0000	0.248095
357.5000	0.246605
357.0000	0.245134
356.5000	0.243668
356.0000	0.242164
355.5000	0.240701
355.0000	0.239168
354.5000	0.237705
354.0000	0.236285
353.5000	0.234845
353.0000	0.233375
352.5000	0.231949
352.0000	0.230474
351.5000	0.229075
351.0000	0.227601
350.5000	0.226242
350.0000	0.224914
349.5000	0.223548
349.0000	0.222358
348.5000	0.221218
348.0000	0.22009
347.5000	0.219047
347.0000	0.218022
346.5000	0.2171
346.0000	0.216289
345.5000	0.215653
345.0000	0.215021
344.5000	0.214585
344.0000	0.21401
343.5000	0.213709
343.0000	0.213535
342.5000	0.21323
342.0000	0.213095
341.5000	0.213616
341.0000	0.213888
340.5000	0.214171
340.0000	0.212437
339.5000	0.212983
339.0000	0.213688
338.5000	0.213982
338.0000	0.214788
337.5000	0.215366
337.0000	0.21557
336.5000	0.215817
336.0000	0.214138
335.5000	0.213857
335.0000	0.211955
334.5000	0.207806
334.0000	0.203011
333.5000	0.1984
333.0000	0.194954
332.5000	0.192834
332.0000	0.191203
331.5000	0.186082
331.0000	0.185391
330.5000	0.18447
330.0000	0.183933
329.5000	0.179204
329.0000	0.178041
328.5000	0.177407
328.0000	0.178763
327.5000	0.179151
327.0000	0.176338
326.5000	0.17733
326.0000	0.172894
325.5000	0.172304
325.0000	0.173556
324.5000	0.173957
324.0000	0.171134
323.5000	0.172253
323.0000	0.175541
322.5000	0.175504
322.0000	0.170419
321.5000	0.168259
321.0000	0.170946
320.5000	0.171104
320.0000	0.171913
319.5000	0.169152
319.0000	0.166199
318.5000	0.164347
318.0000	0.16472
317.5000	0.164024
317.0000	0.16091
316.5000	0.159809
316.0000	0.157322
315.5000	0.162967
315.0000	0.157556
314.5000	0.157431
314.0000	0.160056
313.5000	0.164867
313.0000	0.16637
312.5000	0.166406
312.0000	0.164509
311.5000	0.16578
311.0000	0.166474
310.5000	0.166549
310.0000	0.175889
309.5000	0.181044
309.0000	0.176444
308.5000	0.176195
308.0000	0.178781
307.5000	0.174222
307.0000	0.170876
306.5000	0.162708
306.0000	0.165821
305.5000	0.167589
305.0000	0.163125
304.5000	0.160528
304.0000	0.157762
303.5000	0.158745
303.0000	0.158962
302.5000	0.161558
302.0000	0.153488
301.5000	0.155706
301.0000	0.161801
300.5000	0.16354
300.0000	0.168381
299.5000	0.166761
299.0000	0.16559
298.5000	0.165079
298.0000	0.157199
297.5000	0.154667
297.0000	0.153966
296.5000	0.156188
296.0000	0.157786
295.5000	0.157236
295.0000	0.157904
294.5000	0.155189
294.0000	0.148511
293.5000	0.144961
293.0000	0.150781
292.5000	0.148648
292.0000	0.144882
291.5000	0.147312
291.0000	0.153569
290.5000	0.159506
290.0000	0.160556
289.5000	0.159086
289.0000	0.158614
288.5000	0.160839
288.0000	0.158382
287.5000	0.159046
287.0000	0.159112
286.5000	0.159243
286.0000	0.163527
285.5000	0.165429
285.0000	0.163545
284.5000	0.158496
284.0000	0.153737
283.5000	0.150753
283.0000	0.155767
282.5000	0.159974
282.0000	0.169548
281.5000	0.168335
281.0000	0.169015
280.5000	0.163917
280.0000	0.16297
279.5000	0.157945
279.0000	0.158409
278.5000	0.163223
278.0000	0.160367
277.5000	0.15564
277.0000	0.14753
276.5000	0.144194
276.0000	0.158915
275.5000	0.165403
275.0000	0.168929
274.5000	0.166897
274.0000	0.161027
273.5000	0.158219
273.0000	0.159982
272.5000	0.167811
272.0000	0.175578
271.5000	0.185246
271.0000	0.188316
270.5000	0.191602
270.0000	0.206624
269.5000	0.208454
269.0000	0.200691
268.5000	0.204241
268.0000	0.206412
267.5000	0.204382
267.0000	0.207247
266.5000	0.211034
266.0000	0.222593
265.5000	0.223264
265.0000	0.222502
264.5000	0.233023
264.0000	0.235261
263.5000	0.245228
263.0000	0.258308
262.5000	0.262815
262.0000	0.270509
261.5000	0.271015
261.0000	0.269548
260.5000	0.282566
260.0000	0.27125
259.5000	0.266934
259.0000	0.268867
258.5000	0.279296
258.0000	0.280255
257.5000	0.294278
257.0000	0.293016
256.5000	0.287511
256.0000	0.287834
255.5000	0.277222
255.0000	0.266799
254.5000	0.248719
254.0000	0.235482
253.5000	0.230312
253.0000	0.234038
252.5000	0.232718
252.0000	0.237802
251.5000	0.247123
251.0000	0.257285
250.5000	0.254292
250.0000	0.239261
249.5000	0.265266
249.0000	0.281935
248.5000	0.289123
248.0000	0.292195
247.5000	0.30485
247.0000	0.287533
246.5000	0.284092
246.0000	0.290365
245.5000	0.316245
245.0000	0.351448
244.5000	0.36566
244.0000	0.367216
243.5000	0.367822
243.0000	0.356397
242.5000	0.368503
242.0000	0.382691
241.5000	0.38672
241.0000	0.387027
240.5000	0.381628
240.0000	0.372684
239.5000	0.377261
239.0000	0.373162
238.5000	0.408304
238.0000	0.41634
237.5000	0.426495
237.0000	0.450759
236.5000	0.45485
236.0000	0.434575
235.5000	0.426422
235.0000	0.420554
234.5000	0.430883
234.0000	0.448546
233.5000	0.43704
233.0000	0.423179
232.5000	0.403471
232.0000	0.407588
231.5000	0.402897
231.0000	0.435586
230.5000	0.459594
230.0000	0.46949
229.5000	0.458185
229.0000	0.442551
228.5000	0.433692
228.0000	0.462844
227.5000	0.488171
227.0000	0.523766
226.5000	0.519493
226.0000	0.540372
225.5000	0.536758
225.0000	0.633268
224.5000	0.695852
224.0000	0.863279
223.5000	1.1177
223.0000	10
222.5000	10
222.0000	10
221.5000	10
221.0000	10
220.5000	10
220.0000	10
219.5000	10
219.0000	10
218.5000	10
218.0000	10
217.5000	10
217.0000	10
216.5000	10
216.0000	10
215.5000	10
215.0000	10
214.5000	10
214.0000	-0.786101
213.5000	-0.742772
213.0000	-0.656134
212.5000	-0.592706
212.0000	-0.51388
211.5000	-0.485732
211.0000	-0.462026
210.5000	-0.447131
210.0000	-0.42977
209.5000	-0.428082
209.0000	-0.403195
208.5000	-0.402007
208.0000	-0.394862
207.5000	-0.37111
207.0000	-0.374844
206.5000	-0.37645
206.0000	-0.355717
205.5000	-0.34552
205.0000	-0.333854
204.5000	-0.338629
204.0000	-0.330859
203.5000	-0.304864
203.0000	-0.281563
202.5000	-0.260046
202.0000	-0.235097
201.5000	-0.228977
201.0000	-0.214912
200.5000	-0.19908
200.0000	-0.177483

##### Extended Information
[Comments]
Sample name	N2200
Comment	CN-solution
User
Division
Company	ICMAB

[Detailed Information]
Creation date	22/02/25 12:41 PM

Data array type	Linear data array
Horizontal axis	Wavelength [nm]
Vertical axis	Abs
Start	1600 nm
End	200 nm
Data interval	0.5 nm
Data points	2801    

[Measurement Information]
Instrument name	V-780
Model name	V-780
Serial No.	D003961802

Accessory	ETCS-761
Accessory S/N	A041061399
  Temperature	72745.72 C
  Control sensor	Holder
  Monitor sensor	Holder
  Start mode	Start immediately

Measurement date	22/02/25 12:40 PM

Photometric mode	Abs
Measurement range	1600 - 200 nm
Data interval	0.5 nm
UV/Vis bandwidth	2.0 nm
NIR bandwidth	4.0 nm
UV/Vis response	0.96 sec
NIR response	0.96 sec
Scan mode	Continuous
Scan speed	1000 nm/min
Change source at	340 nm
Change grating at	850 nm
Light source	D2/WI
Filter exchange	Step
Correction	Baseline
No. of cycles	