TITLE	N2200
DATA TYPE	ULTRAVIOLET SPECTRUM
ORIGIN	JASCO
OWNER	
DATE	21/10/25
TIME	15:06:11
SPECTROMETER/DATA SYSTEM	
LOCALE	1033
RESOLUTION	
DELTAX	-0.5
XUNITS	NANOMETERS
YUNITS	ABSORBANCE
FIRSTX	 1600.0000
LASTX	  200.0000
NPOINTS	    2801
FIRSTY	     0.01286
MAXY	     0.42293
MINY	     0.01286
XYDATA
1600.0000	0.0128588
1599.5000	0.0128628
1599.0000	0.012871
1598.5000	0.012877
1598.0000	0.0128846
1597.5000	0.0128891
1597.0000	0.0128938
1596.5000	0.0128968
1596.0000	0.0129039
1595.5000	0.0129073
1595.0000	0.0129168
1594.5000	0.0129217
1594.0000	0.0129314
1593.5000	0.0129378
1593.0000	0.0129513
1592.5000	0.0129588
1592.0000	0.0129682
1591.5000	0.0129721
1591.0000	0.012982
1590.5000	0.0129843
1590.0000	0.0129944
1589.5000	0.0130001
1589.0000	0.0130141
1588.5000	0.0130174
1588.0000	0.0130261
1587.5000	0.0130324
1587.0000	0.0130419
1586.5000	0.0130455
1586.0000	0.0130535
1585.5000	0.0130588
1585.0000	0.013068
1584.5000	0.0130746
1584.0000	0.0130885
1583.5000	0.0130927
1583.0000	0.0131017
1582.5000	0.0131064
1582.0000	0.0131203
1581.5000	0.0131285
1581.0000	0.013135
1580.5000	0.013139
1580.0000	0.0131457
1579.5000	0.0131516
1579.0000	0.0131606
1578.5000	0.0131689
1578.0000	0.0131786
1577.5000	0.0131831
1577.0000	0.0131929
1576.5000	0.0131983
1576.0000	0.0132089
1575.5000	0.0132123
1575.0000	0.0132204
1574.5000	0.0132281
1574.0000	0.0132394
1573.5000	0.0132444
1573.0000	0.0132551
1572.5000	0.0132596
1572.0000	0.0132666
1571.5000	0.0132704
1571.0000	0.0132795
1570.5000	0.0132872
1570.0000	0.0132936
1569.5000	0.0132927
1569.0000	0.0133011
1568.5000	0.0133046
1568.0000	0.0133086
1567.5000	0.0133121
1567.0000	0.0133215
1566.5000	0.0133272
1566.0000	0.0133381
1565.5000	0.0133453
1565.0000	0.0133533
1564.5000	0.0133589
1564.0000	0.0133667
1563.5000	0.0133745
1563.0000	0.0133869
1562.5000	0.0133897
1562.0000	0.0133989
1561.5000	0.0134047
1561.0000	0.0134127
1560.5000	0.0134158
1560.0000	0.0134245
1559.5000	0.0134328
1559.0000	0.0134419
1558.5000	0.0134481
1558.0000	0.0134574
1557.5000	0.013462
1557.0000	0.0134701
1556.5000	0.0134733
1556.0000	0.013485
1555.5000	0.0134956
1555.0000	0.013507
1554.5000	0.013514
1554.0000	0.0135258
1553.5000	0.0135361
1553.0000	0.0135392
1552.5000	0.0135424
1552.0000	0.0135559
1551.5000	0.013562
1551.0000	0.0135696
1550.5000	0.013576
1550.0000	0.0135876
1549.5000	0.0135942
1549.0000	0.0135991
1548.5000	0.0136074
1548.0000	0.0136161
1547.5000	0.0136204
1547.0000	0.0136245
1546.5000	0.0136344
1546.0000	0.0136446
1545.5000	0.0136463
1545.0000	0.0136539
1544.5000	0.0136628
1544.0000	0.0136684
1543.5000	0.0136703
1543.0000	0.0136755
1542.5000	0.0136833
1542.0000	0.0136904
1541.5000	0.0136938
1541.0000	0.0137014
1540.5000	0.0137098
1540.0000	0.0137169
1539.5000	0.0137199
1539.0000	0.0137298
1538.5000	0.0137371
1538.0000	0.0137475
1537.5000	0.0137497
1537.0000	0.0137632
1536.5000	0.0137733
1536.0000	0.0137824
1535.5000	0.013786
1535.0000	0.0137966
1534.5000	0.0138038
1534.0000	0.0138143
1533.5000	0.0138185
1533.0000	0.0138294
1532.5000	0.0138362
1532.0000	0.0138471
1531.5000	0.0138509
1531.0000	0.0138627
1530.5000	0.0138701
1530.0000	0.0138787
1529.5000	0.0138863
1529.0000	0.0139009
1528.5000	0.0139091
1528.0000	0.0139206
1527.5000	0.0139253
1527.0000	0.0139369
1526.5000	0.0139446
1526.0000	0.0139534
1525.5000	0.0139558
1525.0000	0.0139644
1524.5000	0.0139738
1524.0000	0.013984
1523.5000	0.0139884
1523.0000	0.0139933
1522.5000	0.0140013
1522.0000	0.0140086
1521.5000	0.0140136
1521.0000	0.0140205
1520.5000	0.0140276
1520.0000	0.0140342
1519.5000	0.0140378
1519.0000	0.0140481
1518.5000	0.0140577
1518.0000	0.0140675
1517.5000	0.0140735
1517.0000	0.0140807
1516.5000	0.0140884
1516.0000	0.0140984
1515.5000	0.0141031
1515.0000	0.0141136
1514.5000	0.0141205
1514.0000	0.0141334
1513.5000	0.0141448
1513.0000	0.0141563
1512.5000	0.0141604
1512.0000	0.014171
1511.5000	0.0141813
1511.0000	0.0141895
1510.5000	0.014198
1510.0000	0.0142098
1509.5000	0.0142181
1509.0000	0.0142274
1508.5000	0.0142304
1508.0000	0.0142404
1507.5000	0.0142479
1507.0000	0.0142541
1506.5000	0.0142589
1506.0000	0.0142666
1505.5000	0.014274
1505.0000	0.0142808
1504.5000	0.014287
1504.0000	0.0142924
1503.5000	0.0142968
1503.0000	0.0143066
1502.5000	0.0143146
1502.0000	0.0143236
1501.5000	0.0143294
1501.0000	0.014341
1500.5000	0.014349
1500.0000	0.0143582
1499.5000	0.0143648
1499.0000	0.0143748
1498.5000	0.0143793
1498.0000	0.0143868
1497.5000	0.0143933
1497.0000	0.0144007
1496.5000	0.0144071
1496.0000	0.0144162
1495.5000	0.0144238
1495.0000	0.0144342
1494.5000	0.0144382
1494.0000	0.0144488
1493.5000	0.0144563
1493.0000	0.0144667
1492.5000	0.0144745
1492.0000	0.014488
1491.5000	0.0144942
1491.0000	0.0145066
1490.5000	0.0145171
1490.0000	0.014528
1489.5000	0.0145344
1489.0000	0.0145458
1488.5000	0.0145542
1488.0000	0.0145701
1487.5000	0.0145783
1487.0000	0.0145865
1486.5000	0.0145897
1486.0000	0.0145964
1485.5000	0.0146027
1485.0000	0.0146104
1484.5000	0.0146148
1484.0000	0.0146219
1483.5000	0.0146296
1483.0000	0.014634
1482.5000	0.0146423
1482.0000	0.01465
1481.5000	0.0146527
1481.0000	0.0146593
1480.5000	0.01467
1480.0000	0.0146839
1479.5000	0.0146925
1479.0000	0.0147022
1478.5000	0.0147091
1478.0000	0.0147216
1477.5000	0.0147299
1477.0000	0.0147373
1476.5000	0.0147396
1476.0000	0.0147434
1475.5000	0.0147493
1475.0000	0.0147575
1474.5000	0.0147661
1474.0000	0.0147752
1473.5000	0.0147796
1473.0000	0.0147822
1472.5000	0.0147887
1472.0000	0.0147997
1471.5000	0.014803
1471.0000	0.0148125
1470.5000	0.0148265
1470.0000	0.0148392
1469.5000	0.0148494
1469.0000	0.0148614
1468.5000	0.0148671
1468.0000	0.014876
1467.5000	0.0148845
1467.0000	0.0148957
1466.5000	0.0149089
1466.0000	0.0149279
1465.5000	0.0149339
1465.0000	0.0149434
1464.5000	0.0149574
1464.0000	0.0149686
1463.5000	0.0149758
1463.0000	0.0149858
1462.5000	0.0149926
1462.0000	0.0150028
1461.5000	0.0150105
1461.0000	0.0150179
1460.5000	0.0150262
1460.0000	0.0150322
1459.5000	0.0150356
1459.0000	0.0150425
1458.5000	0.0150543
1458.0000	0.0150672
1457.5000	0.015072
1457.0000	0.0150844
1456.5000	0.0150926
1456.0000	0.0151033
1455.5000	0.0151124
1455.0000	0.0151221
1454.5000	0.0151313
1454.0000	0.0151462
1453.5000	0.0151528
1453.0000	0.0151661
1452.5000	0.0151755
1452.0000	0.0151854
1451.5000	0.0151892
1451.0000	0.0151965
1450.5000	0.0151975
1450.0000	0.0152
1449.5000	0.0152101
1449.0000	0.0152241
1448.5000	0.0152411
1448.0000	0.0152613
1447.5000	0.0152668
1447.0000	0.0152812
1446.5000	0.0152856
1446.0000	0.0152941
1445.5000	0.015297
1445.0000	0.0153046
1444.5000	0.0153155
1444.0000	0.0153373
1443.5000	0.0153526
1443.0000	0.015362
1442.5000	0.0153658
1442.0000	0.0153566
1441.5000	0.0153531
1441.0000	0.0153542
1440.5000	0.0153562
1440.0000	0.0153738
1439.5000	0.0153848
1439.0000	0.0153973
1438.5000	0.0154037
1438.0000	0.0154108
1437.5000	0.0154172
1437.0000	0.0154291
1436.5000	0.0154426
1436.0000	0.0154592
1435.5000	0.0154648
1435.0000	0.0154799
1434.5000	0.0154917
1434.0000	0.0155079
1433.5000	0.0155103
1433.0000	0.0155146
1432.5000	0.015517
1432.0000	0.0155241
1431.5000	0.0155298
1431.0000	0.0155369
1430.5000	0.0155412
1430.0000	0.0155478
1429.5000	0.0155549
1429.0000	0.0155722
1428.5000	0.0155746
1428.0000	0.0155776
1427.5000	0.0155758
1427.0000	0.0155874
1426.5000	0.0156018
1426.0000	0.0156311
1425.5000	0.0156455
1425.0000	0.0156591
1424.5000	0.0156649
1424.0000	0.0156782
1423.5000	0.0156821
1423.0000	0.0156967
1422.5000	0.0157073
1422.0000	0.0157315
1421.5000	0.0157464
1421.0000	0.0157719
1420.5000	0.0157832
1420.0000	0.0157943
1419.5000	0.0157976
1419.0000	0.0157954
1418.5000	0.0157914
1418.0000	0.0157909
1417.5000	0.0157909
1417.0000	0.0158264
1416.5000	0.0158451
1416.0000	0.0158658
1415.5000	0.0158654
1415.0000	0.0158659
1414.5000	0.015867
1414.0000	0.01586
1413.5000	0.0158512
1413.0000	0.015839
1412.5000	0.0158446
1412.0000	0.0158697
1411.5000	0.0158843
1411.0000	0.0158924
1410.5000	0.0158809
1410.0000	0.0158776
1409.5000	0.0158738
1409.0000	0.0158784
1408.5000	0.0158673
1408.0000	0.0158544
1407.5000	0.0158564
1407.0000	0.0158976
1406.5000	0.015928
1406.0000	0.0159466
1405.5000	0.0159522
1405.0000	0.0159389
1404.5000	0.0159396
1404.0000	0.0159461
1403.5000	0.0159514
1403.0000	0.0159931
1402.5000	0.0160345
1402.0000	0.016119
1401.5000	0.0161668
1401.0000	0.01619
1400.5000	0.0161831
1400.0000	0.0161758
1399.5000	0.0161761
1399.0000	0.0161832
1398.5000	0.0161913
1398.0000	0.0162014
1397.5000	0.0162223
1397.0000	0.0162376
1396.5000	0.0162386
1396.0000	0.0162136
1395.5000	0.0161963
1395.0000	0.0161965
1394.5000	0.0162091
1394.0000	0.0162404
1393.5000	0.0162624
1393.0000	0.0162744
1392.5000	0.0162697
1392.0000	0.0162701
1391.5000	0.0162585
1391.0000	0.0162347
1390.5000	0.0162387
1390.0000	0.0162538
1389.5000	0.0162733
1389.0000	0.0162809
1388.5000	0.0162804
1388.0000	0.0162987
1387.5000	0.0162954
1387.0000	0.0162681
1386.5000	0.0162615
1386.0000	0.0162753
1385.5000	0.0163152
1385.0000	0.0163798
1384.5000	0.0164008
1384.0000	0.0163888
1383.5000	0.0163575
1383.0000	0.0163296
1382.5000	0.0163269
1382.0000	0.0163371
1381.5000	0.0163388
1381.0000	0.016366
1380.5000	0.0163903
1380.0000	0.0164258
1379.5000	0.0164387
1379.0000	0.0164265
1378.5000	0.0164239
1378.0000	0.0164354
1377.5000	0.0164648
1377.0000	0.0165263
1376.5000	0.0165577
1376.0000	0.0165815
1375.5000	0.0165749
1375.0000	0.0165737
1374.5000	0.0165745
1374.0000	0.0165803
1373.5000	0.0165781
1373.0000	0.0165631
1372.5000	0.0165549
1372.0000	0.0165472
1371.5000	0.0165509
1371.0000	0.0165573
1370.5000	0.0165625
1370.0000	0.0165716
1369.5000	0.016585
1369.0000	0.01661
1368.5000	0.0166054
1368.0000	0.0165918
1367.5000	0.0165915
1367.0000	0.0166346
1366.5000	0.0166778
1366.0000	0.0167169
1365.5000	0.0167204
1365.0000	0.016702
1364.5000	0.0167026
1364.0000	0.0167077
1363.5000	0.0167177
1363.0000	0.0167272
1362.5000	0.0167452
1362.0000	0.016791
1361.5000	0.0168292
1361.0000	0.0168901
1360.5000	0.016909
1360.0000	0.0169199
1359.5000	0.01691
1359.0000	0.0169345
1358.5000	0.0169582
1358.0000	0.0169731
1357.5000	0.0169793
1357.0000	0.0169825
1356.5000	0.017002
1356.0000	0.0170184
1355.5000	0.0170262
1355.0000	0.0170327
1354.5000	0.017028
1354.0000	0.0170415
1353.5000	0.0170531
1353.0000	0.0170992
1352.5000	0.0171129
1352.0000	0.017111
1351.5000	0.017104
1351.0000	0.017089
1350.5000	0.0171004
1350.0000	0.0171107
1349.5000	0.0171178
1349.0000	0.0171228
1348.5000	0.0171284
1348.0000	0.0171408
1347.5000	0.0171475
1347.0000	0.0171553
1346.5000	0.0171683
1346.0000	0.0171912
1345.5000	0.0172018
1345.0000	0.0172186
1344.5000	0.0172231
1344.0000	0.0172307
1343.5000	0.0172371
1343.0000	0.0172492
1342.5000	0.017259
1342.0000	0.0172719
1341.5000	0.0172783
1341.0000	0.0172901
1340.5000	0.0172994
1340.0000	0.0173057
1339.5000	0.017315
1339.0000	0.0173293
1338.5000	0.0173386
1338.0000	0.0173523
1337.5000	0.0173604
1337.0000	0.0173719
1336.5000	0.0173764
1336.0000	0.017386
1335.5000	0.0173934
1335.0000	0.0174028
1334.5000	0.0174086
1334.0000	0.0174203
1333.5000	0.0174306
1333.0000	0.0174426
1332.5000	0.0174521
1332.0000	0.0174637
1331.5000	0.0174733
1331.0000	0.0174899
1330.5000	0.0175022
1330.0000	0.0175205
1329.5000	0.0175331
1329.0000	0.0175488
1328.5000	0.0175596
1328.0000	0.0175727
1327.5000	0.0175816
1327.0000	0.0175931
1326.5000	0.0175993
1326.0000	0.0176112
1325.5000	0.0176231
1325.0000	0.017635
1324.5000	0.0176415
1324.0000	0.0176506
1323.5000	0.0176577
1323.0000	0.0176699
1322.5000	0.0176804
1322.0000	0.0176914
1321.5000	0.0177005
1321.0000	0.0177156
1320.5000	0.0177269
1320.0000	0.017743
1319.5000	0.017753
1319.0000	0.0177638
1318.5000	0.0177748
1318.0000	0.0177869
1317.5000	0.0177952
1317.0000	0.017806
1316.5000	0.0178159
1316.0000	0.0178283
1315.5000	0.0178377
1315.0000	0.0178501
1314.5000	0.0178589
1314.0000	0.0178697
1313.5000	0.01788
1313.0000	0.017893
1312.5000	0.0179019
1312.0000	0.0179116
1311.5000	0.0179223
1311.0000	0.0179374
1310.5000	0.0179472
1310.0000	0.0179616
1309.5000	0.0179717
1309.0000	0.0179854
1308.5000	0.0179968
1308.0000	0.0180076
1307.5000	0.0180163
1307.0000	0.0180269
1306.5000	0.0180358
1306.0000	0.0180487
1305.5000	0.0180605
1305.0000	0.0180737
1304.5000	0.0180845
1304.0000	0.0180963
1303.5000	0.0181054
1303.0000	0.018114
1302.5000	0.0181233
1302.0000	0.018134
1301.5000	0.0181437
1301.0000	0.0181588
1300.5000	0.0181688
1300.0000	0.0181828
1299.5000	0.0181905
1299.0000	0.0182008
1298.5000	0.018209
1298.0000	0.0182193
1297.5000	0.0182274
1297.0000	0.0182423
1296.5000	0.0182514
1296.0000	0.0182644
1295.5000	0.0182743
1295.0000	0.0182884
1294.5000	0.0182967
1294.0000	0.0183072
1293.5000	0.0183154
1293.0000	0.0183273
1292.5000	0.0183394
1292.0000	0.0183524
1291.5000	0.018366
1291.0000	0.0183808
1290.5000	0.0183903
1290.0000	0.0184057
1289.5000	0.0184159
1289.0000	0.0184288
1288.5000	0.0184376
1288.0000	0.0184551
1287.5000	0.0184646
1287.0000	0.0184822
1286.5000	0.0184921
1286.0000	0.0185028
1285.5000	0.0185148
1285.0000	0.0185274
1284.5000	0.0185384
1284.0000	0.0185504
1283.5000	0.0185614
1283.0000	0.0185748
1282.5000	0.0185858
1282.0000	0.0185996
1281.5000	0.0186087
1281.0000	0.0186237
1280.5000	0.0186333
1280.0000	0.0186473
1279.5000	0.0186577
1279.0000	0.0186708
1278.5000	0.0186783
1278.0000	0.0186905
1277.5000	0.0186993
1277.0000	0.0187114
1276.5000	0.0187216
1276.0000	0.0187367
1275.5000	0.0187466
1275.0000	0.0187625
1274.5000	0.0187697
1274.0000	0.0187828
1273.5000	0.0187932
1273.0000	0.0188084
1272.5000	0.01882
1272.0000	0.0188336
1271.5000	0.018843
1271.0000	0.0188579
1270.5000	0.0188697
1270.0000	0.0188813
1269.5000	0.0188913
1269.0000	0.0189025
1268.5000	0.0189125
1268.0000	0.0189307
1267.5000	0.0189417
1267.0000	0.0189558
1266.5000	0.0189669
1266.0000	0.0189808
1265.5000	0.0189937
1265.0000	0.0190091
1264.5000	0.0190192
1264.0000	0.019032
1263.5000	0.0190426
1263.0000	0.0190588
1262.5000	0.0190686
1262.0000	0.0190824
1261.5000	0.0190922
1261.0000	0.0191061
1260.5000	0.0191153
1260.0000	0.0191283
1259.5000	0.0191383
1259.0000	0.0191509
1258.5000	0.019163
1258.0000	0.0191773
1257.5000	0.019189
1257.0000	0.0192022
1256.5000	0.0192127
1256.0000	0.0192282
1255.5000	0.0192373
1255.0000	0.01925
1254.5000	0.0192612
1254.0000	0.0192755
1253.5000	0.0192836
1253.0000	0.0192991
1252.5000	0.0193104
1252.0000	0.0193249
1251.5000	0.0193364
1251.0000	0.0193522
1250.5000	0.0193647
1250.0000	0.0193774
1249.5000	0.0193897
1249.0000	0.0194052
1248.5000	0.0194166
1248.0000	0.019429
1247.5000	0.0194383
1247.0000	0.0194557
1246.5000	0.0194657
1246.0000	0.0194797
1245.5000	0.01949
1245.0000	0.0195024
1244.5000	0.0195127
1244.0000	0.0195258
1243.5000	0.0195359
1243.0000	0.01955
1242.5000	0.0195608
1242.0000	0.0195768
1241.5000	0.0195891
1241.0000	0.0196055
1240.5000	0.0196154
1240.0000	0.0196274
1239.5000	0.0196372
1239.0000	0.0196567
1238.5000	0.0196697
1238.0000	0.0196857
1237.5000	0.0196955
1237.0000	0.0197132
1236.5000	0.0197226
1236.0000	0.0197366
1235.5000	0.0197475
1235.0000	0.0197625
1234.5000	0.0197744
1234.0000	0.0197951
1233.5000	0.0198092
1233.0000	0.0198235
1232.5000	0.0198306
1232.0000	0.019844
1231.5000	0.0198548
1231.0000	0.0198717
1230.5000	0.0198824
1230.0000	0.0198997
1229.5000	0.0199126
1229.0000	0.0199307
1228.5000	0.0199438
1228.0000	0.0199603
1227.5000	0.0199663
1227.0000	0.0199804
1226.5000	0.0199912
1226.0000	0.0200097
1225.5000	0.0200204
1225.0000	0.0200358
1224.5000	0.0200443
1224.0000	0.0200615
1223.5000	0.0200715
1223.0000	0.0200913
1222.5000	0.0201032
1222.0000	0.0201172
1221.5000	0.0201257
1221.0000	0.0201436
1220.5000	0.0201545
1220.0000	0.020173
1219.5000	0.0201848
1219.0000	0.0202006
1218.5000	0.0202144
1218.0000	0.020233
1217.5000	0.0202434
1217.0000	0.0202608
1216.5000	0.0202694
1216.0000	0.0202813
1215.5000	0.0202912
1215.0000	0.0203108
1214.5000	0.0203222
1214.0000	0.0203372
1213.5000	0.0203481
1213.0000	0.0203639
1212.5000	0.0203745
1212.0000	0.0203908
1211.5000	0.0203993
1211.0000	0.0204153
1210.5000	0.0204251
1210.0000	0.0204422
1209.5000	0.0204533
1209.0000	0.0204701
1208.5000	0.0204786
1208.0000	0.0204944
1207.5000	0.0205058
1207.0000	0.02052
1206.5000	0.0205315
1206.0000	0.0205501
1205.5000	0.0205593
1205.0000	0.0205794
1204.5000	0.0205919
1204.0000	0.0206072
1203.5000	0.0206151
1203.0000	0.0206343
1202.5000	0.0206447
1202.0000	0.020665
1201.5000	0.0206749
1201.0000	0.0206947
1200.5000	0.0207065
1200.0000	0.0207063
1199.5000	0.0207178
1199.0000	0.0207347
1198.5000	0.0207472
1198.0000	0.0207651
1197.5000	0.020775
1197.0000	0.0207906
1196.5000	0.0208025
1196.0000	0.0208167
1195.5000	0.0208297
1195.0000	0.0208484
1194.5000	0.0208631
1194.0000	0.0208804
1193.5000	0.0208905
1193.0000	0.0209091
1192.5000	0.0209224
1192.0000	0.0209405
1191.5000	0.0209533
1191.0000	0.0209711
1190.5000	0.0209858
1190.0000	0.0210036
1189.5000	0.0210149
1189.0000	0.0210321
1188.5000	0.0210441
1188.0000	0.0210596
1187.5000	0.0210738
1187.0000	0.0210917
1186.5000	0.0211056
1186.0000	0.0211185
1185.5000	0.0211286
1185.0000	0.021145
1184.5000	0.0211537
1184.0000	0.0211665
1183.5000	0.0211785
1183.0000	0.0211973
1182.5000	0.0212063
1182.0000	0.0212177
1181.5000	0.0212256
1181.0000	0.0212417
1180.5000	0.021254
1180.0000	0.0212664
1179.5000	0.0212816
1179.0000	0.0213015
1178.5000	0.0213133
1178.0000	0.0213297
1177.5000	0.021343
1177.0000	0.0213584
1176.5000	0.0213696
1176.0000	0.0213917
1175.5000	0.0214042
1175.0000	0.0214239
1174.5000	0.0214354
1174.0000	0.0214561
1173.5000	0.0214679
1173.0000	0.0214833
1172.5000	0.0214944
1172.0000	0.0215167
1171.5000	0.0215326
1171.0000	0.0215546
1170.5000	0.021569
1170.0000	0.0215889
1169.5000	0.0216008
1169.0000	0.021622
1168.5000	0.0216355
1168.0000	0.0216504
1167.5000	0.0216578
1167.0000	0.0216766
1166.5000	0.0216893
1166.0000	0.0217051
1165.5000	0.0217138
1165.0000	0.0217248
1164.5000	0.0217362
1164.0000	0.021754
1163.5000	0.0217654
1163.0000	0.0217843
1162.5000	0.0217964
1162.0000	0.0218149
1161.5000	0.0218265
1161.0000	0.0218478
1160.5000	0.0218607
1160.0000	0.02188
1159.5000	0.0218916
1159.0000	0.0219114
1158.5000	0.0219243
1158.0000	0.0219421
1157.5000	0.0219499
1157.0000	0.0219667
1156.5000	0.0219786
1156.0000	0.021995
1155.5000	0.0220054
1155.0000	0.0220288
1154.5000	0.0220435
1154.0000	0.0220599
1153.5000	0.0220722
1153.0000	0.0220948
1152.5000	0.0221088
1152.0000	0.0221284
1151.5000	0.022139
1151.0000	0.0221617
1150.5000	0.0221721
1150.0000	0.0221915
1149.5000	0.022204
1149.0000	0.022222
1148.5000	0.0222351
1148.0000	0.0222549
1147.5000	0.0222684
1147.0000	0.0222867
1146.5000	0.0222978
1146.0000	0.0223121
1145.5000	0.0223235
1145.0000	0.0223398
1144.5000	0.0223517
1144.0000	0.0223744
1143.5000	0.0223852
1143.0000	0.0224091
1142.5000	0.0224194
1142.0000	0.0224381
1141.5000	0.0224483
1141.0000	0.0224644
1140.5000	0.0224751
1140.0000	0.0224872
1139.5000	0.0225022
1139.0000	0.0225244
1138.5000	0.0225414
1138.0000	0.022569
1137.5000	0.0225803
1137.0000	0.0226095
1136.5000	0.0226247
1136.0000	0.0226462
1135.5000	0.0226603
1135.0000	0.0226795
1134.5000	0.0226952
1134.0000	0.0227193
1133.5000	0.02274
1133.0000	0.0227617
1132.5000	0.0227759
1132.0000	0.022797
1131.5000	0.0228022
1131.0000	0.0228186
1130.5000	0.0228239
1130.0000	0.0228424
1129.5000	0.0228553
1129.0000	0.0228744
1128.5000	0.0228916
1128.0000	0.0229098
1127.5000	0.0229219
1127.0000	0.0229439
1126.5000	0.0229583
1126.0000	0.0229843
1125.5000	0.0229968
1125.0000	0.0230228
1124.5000	0.0230374
1124.0000	0.0230594
1123.5000	0.0230716
1123.0000	0.0230893
1122.5000	0.0231025
1122.0000	0.0231191
1121.5000	0.0231317
1121.0000	0.0231534
1120.5000	0.0231652
1120.0000	0.0231841
1119.5000	0.023189
1119.0000	0.0232084
1118.5000	0.0232195
1118.0000	0.0232401
1117.5000	0.0232539
1117.0000	0.0232784
1116.5000	0.023292
1116.0000	0.0233141
1115.5000	0.0233308
1115.0000	0.0233564
1114.5000	0.0233716
1114.0000	0.023392
1113.5000	0.0234053
1113.0000	0.0234313
1112.5000	0.0234449
1112.0000	0.0234672
1111.5000	0.0234817
1111.0000	0.0235048
1110.5000	0.02352
1110.0000	0.023543
1109.5000	0.0235579
1109.0000	0.0235766
1108.5000	0.0235893
1108.0000	0.0236124
1107.5000	0.0236266
1107.0000	0.0236508
1106.5000	0.0236629
1106.0000	0.0236836
1105.5000	0.0236944
1105.0000	0.023716
1104.5000	0.0237284
1104.0000	0.0237456
1103.5000	0.023758
1103.0000	0.0237796
1102.5000	0.0237928
1102.0000	0.0238109
1101.5000	0.0238234
1101.0000	0.0238437
1100.5000	0.0238573
1100.0000	0.0238821
1099.5000	0.0238972
1099.0000	0.0239228
1098.5000	0.0239386
1098.0000	0.0239606
1097.5000	0.0239752
1097.0000	0.0239987
1096.5000	0.0240137
1096.0000	0.0240371
1095.5000	0.0240541
1095.0000	0.024079
1094.5000	0.0240927
1094.0000	0.0241123
1093.5000	0.0241262
1093.0000	0.0241496
1092.5000	0.0241639
1092.0000	0.0241843
1091.5000	0.0242003
1091.0000	0.024224
1090.5000	0.0242394
1090.0000	0.0242616
1089.5000	0.0242761
1089.0000	0.0242962
1088.5000	0.0243125
1088.0000	0.024337
1087.5000	0.0243532
1087.0000	0.0243778
1086.5000	0.0243921
1086.0000	0.0244158
1085.5000	0.024432
1085.0000	0.0244579
1084.5000	0.0244746
1084.0000	0.0244958
1083.5000	0.0245114
1083.0000	0.0245365
1082.5000	0.0245521
1082.0000	0.0245758
1081.5000	0.0245902
1081.0000	0.0246093
1080.5000	0.0246233
1080.0000	0.0246431
1079.5000	0.0246578
1079.0000	0.0246803
1078.5000	0.0246946
1078.0000	0.0247195
1077.5000	0.0247365
1077.0000	0.0247567
1076.5000	0.0247714
1076.0000	0.0247954
1075.5000	0.0248093
1075.0000	0.0248345
1074.5000	0.0248511
1074.0000	0.0248743
1073.5000	0.0248894
1073.0000	0.0249108
1072.5000	0.0249281
1072.0000	0.0249519
1071.5000	0.0249652
1071.0000	0.0249911
1070.5000	0.0250102
1070.0000	0.0250331
1069.5000	0.0250497
1069.0000	0.0250756
1068.5000	0.0250932
1068.0000	0.025117
1067.5000	0.0251348
1067.0000	0.0251609
1066.5000	0.0251786
1066.0000	0.0252009
1065.5000	0.0252187
1065.0000	0.0252441
1064.5000	0.0252608
1064.0000	0.0252821
1063.5000	0.0252997
1063.0000	0.0253236
1062.5000	0.0253401
1062.0000	0.025361
1061.5000	0.0253778
1061.0000	0.0254056
1060.5000	0.0254243
1060.0000	0.025445
1059.5000	0.0254638
1059.0000	0.025486
1058.5000	0.0255034
1058.0000	0.0255243
1057.5000	0.0255426
1057.0000	0.0255663
1056.5000	0.0255831
1056.0000	0.0256082
1055.5000	0.0256267
1055.0000	0.0256506
1054.5000	0.0256664
1054.0000	0.0256883
1053.5000	0.025707
1053.0000	0.0257304
1052.5000	0.0257455
1052.0000	0.0257692
1051.5000	0.025788
1051.0000	0.0258136
1050.5000	0.0258293
1050.0000	0.0258542
1049.5000	0.0258739
1049.0000	0.0258977
1048.5000	0.025915
1048.0000	0.0259384
1047.5000	0.0259543
1047.0000	0.0259813
1046.5000	0.0259992
1046.0000	0.0260298
1045.5000	0.0260482
1045.0000	0.0260736
1044.5000	0.0260938
1044.0000	0.0261245
1043.5000	0.0261414
1043.0000	0.0261628
1042.5000	0.0261828
1042.0000	0.0262092
1041.5000	0.0262282
1041.0000	0.0262519
1040.5000	0.0262695
1040.0000	0.0262948
1039.5000	0.0263091
1039.0000	0.0263327
1038.5000	0.0263525
1038.0000	0.026371
1037.5000	0.0263859
1037.0000	0.0264113
1036.5000	0.0264302
1036.0000	0.0264531
1035.5000	0.0264712
1035.0000	0.0264983
1034.5000	0.0265201
1034.0000	0.0265455
1033.5000	0.0265628
1033.0000	0.0265925
1032.5000	0.0266114
1032.0000	0.0266375
1031.5000	0.026655
1031.0000	0.0266871
1030.5000	0.0267093
1030.0000	0.0267362
1029.5000	0.026755
1029.0000	0.0267788
1028.5000	0.0267951
1028.0000	0.0268172
1027.5000	0.0268362
1027.0000	0.0268627
1026.5000	0.0268808
1026.0000	0.0269044
1025.5000	0.0269247
1025.0000	0.0269558
1024.5000	0.0269724
1024.0000	0.0269956
1023.5000	0.0270143
1023.0000	0.0270458
1022.5000	0.0270671
1022.0000	0.0270967
1021.5000	0.0271182
1021.0000	0.0271496
1020.5000	0.0271695
1020.0000	0.027197
1019.5000	0.0272168
1019.0000	0.0272419
1018.5000	0.0272583
1018.0000	0.027285
1017.5000	0.0273073
1017.0000	0.0273369
1016.5000	0.027355
1016.0000	0.0273832
1015.5000	0.0274028
1015.0000	0.0274312
1014.5000	0.0274507
1014.0000	0.0274837
1013.5000	0.0275034
1013.0000	0.027533
1012.5000	0.0275599
1012.0000	0.0275957
1011.5000	0.0276186
1011.0000	0.0276448
1010.5000	0.0276625
1010.0000	0.0276958
1009.5000	0.0277176
1009.0000	0.0277481
1008.5000	0.0277685
1008.0000	0.0277964
1007.5000	0.0278162
1007.0000	0.027846
1006.5000	0.0278686
1006.0000	0.0278979
1005.5000	0.0279149
1005.0000	0.0279453
1004.5000	0.0279699
1004.0000	0.028005
1003.5000	0.0280254
1003.0000	0.0280561
1002.5000	0.0280769
1002.0000	0.0281075
1001.5000	0.0281318
1001.0000	0.0281625
1000.5000	0.0281854
1000.0000	0.0282092
999.5000	0.0282284
999.0000	0.0282576
998.5000	0.028276
998.0000	0.0282996
997.5000	0.0283145
997.0000	0.0283453
996.5000	0.0283654
996.0000	0.0283987
995.5000	0.0284176
995.0000	0.0284459
994.5000	0.0284681
994.0000	0.028499
993.5000	0.0285234
993.0000	0.0285589
992.5000	0.0285817
992.0000	0.0286141
991.5000	0.0286355
991.0000	0.0286694
990.5000	0.028691
990.0000	0.0287194
989.5000	0.0287391
989.0000	0.0287743
988.5000	0.0287972
988.0000	0.0288288
987.5000	0.028849
987.0000	0.0288802
986.5000	0.0289007
986.0000	0.0289326
985.5000	0.0289553
985.0000	0.0289862
984.5000	0.0290096
984.0000	0.0290406
983.5000	0.0290643
983.0000	0.0291014
982.5000	0.0291234
982.0000	0.0291554
981.5000	0.0291762
981.0000	0.029211
980.5000	0.0292322
980.0000	0.0292617
979.5000	0.0292844
979.0000	0.0293184
978.5000	0.0293437
978.0000	0.0293768
977.5000	0.0293983
977.0000	0.0294335
976.5000	0.0294578
976.0000	0.0294935
975.5000	0.0295164
975.0000	0.0295489
974.5000	0.0295718
974.0000	0.029606
973.5000	0.0296293
973.0000	0.029662
972.5000	0.0296858
972.0000	0.0297196
971.5000	0.0297388
971.0000	0.0297717
970.5000	0.0297946
970.0000	0.0298257
969.5000	0.029845
969.0000	0.0298799
968.5000	0.0299079
968.0000	0.0299417
967.5000	0.0299657
967.0000	0.0300013
966.5000	0.0300281
966.0000	0.03006
965.5000	0.0300853
965.0000	0.0301282
964.5000	0.0301555
964.0000	0.0301917
963.5000	0.0302128
963.0000	0.0302537
962.5000	0.0302741
962.0000	0.03031
961.5000	0.030332
961.0000	0.0303752
960.5000	0.0304019
960.0000	0.0304369
959.5000	0.0304611
959.0000	0.030501
958.5000	0.0305278
958.0000	0.0305611
957.5000	0.0305887
957.0000	0.0306308
956.5000	0.0306605
956.0000	0.0307039
955.5000	0.0307268
955.0000	0.0307698
954.5000	0.0307905
954.0000	0.0308263
953.5000	0.0308532
953.0000	0.0308972
952.5000	0.0309245
952.0000	0.0309639
951.5000	0.0309915
951.0000	0.0310273
950.5000	0.0310522
950.0000	0.0310836
949.5000	0.0311091
949.0000	0.031152
948.5000	0.0311756
948.0000	0.03122
947.5000	0.0312497
947.0000	0.0312925
946.5000	0.0313204
946.0000	0.0313572
945.5000	0.0313831
945.0000	0.0314278
944.5000	0.031455
944.0000	0.0314997
943.5000	0.0315304
943.0000	0.0315701
942.5000	0.0315965
942.0000	0.0316392
941.5000	0.0316635
941.0000	0.0317033
940.5000	0.0317319
940.0000	0.0317738
939.5000	0.0318014
939.0000	0.0318441
938.5000	0.0318731
938.0000	0.0319162
937.5000	0.0319425
937.0000	0.0319881
936.5000	0.0320221
936.0000	0.0320734
935.5000	0.0321025
935.0000	0.0321454
934.5000	0.032174
934.0000	0.0322153
933.5000	0.0322432
933.0000	0.0322887
932.5000	0.0323227
932.0000	0.0323651
931.5000	0.0323943
931.0000	0.03244
930.5000	0.0324709
930.0000	0.0325145
929.5000	0.0325398
929.0000	0.0325887
928.5000	0.0326242
928.0000	0.032672
927.5000	0.0327027
927.0000	0.0327573
926.5000	0.032791
926.0000	0.0328347
925.5000	0.0328648
925.0000	0.0329162
924.5000	0.0329473
924.0000	0.0329898
923.5000	0.0330163
923.0000	0.0330677
922.5000	0.0330997
922.0000	0.033145
921.5000	0.0331762
921.0000	0.0332258
920.5000	0.0332622
920.0000	0.0333066
919.5000	0.0333418
919.0000	0.0333947
918.5000	0.0334301
918.0000	0.0334819
917.5000	0.0335202
917.0000	0.0335797
916.5000	0.0336186
916.0000	0.0336653
915.5000	0.0337051
915.0000	0.0337679
914.5000	0.0338049
914.0000	0.0338584
913.5000	0.0338937
913.0000	0.0339466
912.5000	0.0339855
912.0000	0.0340391
911.5000	0.0340782
911.0000	0.034137
910.5000	0.034176
910.0000	0.0342297
909.5000	0.0342724
909.0000	0.0343284
908.5000	0.0343674
908.0000	0.0344173
907.5000	0.0344607
907.0000	0.0345197
906.5000	0.0345606
906.0000	0.0346151
905.5000	0.0346548
905.0000	0.0347138
904.5000	0.0347549
904.0000	0.0348085
903.5000	0.0348508
903.0000	0.0349104
902.5000	0.0349486
902.0000	0.0350104
901.5000	0.0350581
901.0000	0.0351229
900.5000	0.0351674
900.0000	0.0352271
899.5000	0.0352717
899.0000	0.0353342
898.5000	0.0353756
898.0000	0.0354439
897.5000	0.0354861
897.0000	0.0355482
896.5000	0.0355983
896.0000	0.0356622
895.5000	0.0357013
895.0000	0.0357613
894.5000	0.0358047
894.0000	0.0358691
893.5000	0.0359121
893.0000	0.0359768
892.5000	0.0360262
892.0000	0.0360902
891.5000	0.0361314
891.0000	0.0362039
890.5000	0.0362556
890.0000	0.0363239
889.5000	0.0363711
889.0000	0.0364514
888.5000	0.0365096
888.0000	0.0365829
887.5000	0.0366358
887.0000	0.0367225
886.5000	0.036774
886.0000	0.0368539
885.5000	0.0369079
885.0000	0.0369919
884.5000	0.0370442
884.0000	0.0371164
883.5000	0.0371677
883.0000	0.0372489
882.5000	0.037303
882.0000	0.0373808
881.5000	0.0374344
881.0000	0.0375209
880.5000	0.0375786
880.0000	0.0376649
879.5000	0.0377192
879.0000	0.0378139
878.5000	0.037873
878.0000	0.037971
877.5000	0.0380352
877.0000	0.038141
876.5000	0.0382063
876.0000	0.0383068
875.5000	0.0383695
875.0000	0.0384731
874.5000	0.0385396
874.0000	0.0386341
873.5000	0.0387007
873.0000	0.0387994
872.5000	0.0388688
872.0000	0.0389702
871.5000	0.0390444
871.0000	0.0391548
870.5000	0.0392319
870.0000	0.0393403
869.5000	0.039411
869.0000	0.0395251
868.5000	0.0396061
868.0000	0.0397125
867.5000	0.0397904
867.0000	0.0399178
866.5000	0.0399968
866.0000	0.0401112
865.5000	0.0401953
865.0000	0.0403212
864.5000	0.0404033
864.0000	0.040522
863.5000	0.0406044
863.0000	0.0407472
862.5000	0.0408322
862.0000	0.0409725
861.5000	0.0410664
861.0000	0.0412055
860.5000	0.0412957
860.0000	0.0414377
859.5000	0.0415291
859.0000	0.0416752
858.5000	0.0417719
858.0000	0.0419188
857.5000	0.0420237
857.0000	0.0421825
856.5000	0.0422801
856.0000	0.0424345
855.5000	0.0425352
855.0000	0.0427035
854.5000	0.0428141
854.0000	0.0429842
853.5000	0.0430953
853.0000	0.0432788
852.5000	0.0433992
852.0000	0.0435651
851.5000	0.0436863
851.0000	0.0438702
850.5000	0.0439958
850.0000	0.0450763
849.5000	0.0452001
849.0000	0.0453609
848.5000	0.0454994
848.0000	0.0457225
847.5000	0.0458559
847.0000	0.0460737
846.5000	0.0462218
846.0000	0.0465069
845.5000	0.0466387
845.0000	0.0468778
844.5000	0.0470281
844.0000	0.0472633
843.5000	0.047373
843.0000	0.0475821
842.5000	0.0477744
842.0000	0.0479824
841.5000	0.0481255
841.0000	0.0483603
840.5000	0.0485412
840.0000	0.0487283
839.5000	0.0488802
839.0000	0.0491301
838.5000	0.0493226
838.0000	0.0496168
837.5000	0.0497989
837.0000	0.0500872
836.5000	0.0502902
836.0000	0.050557
835.5000	0.0507322
835.0000	0.0510182
834.5000	0.0512058
834.0000	0.0514874
833.5000	0.0517168
833.0000	0.0520468
832.5000	0.0522562
832.0000	0.0525529
831.5000	0.0527735
831.0000	0.0530739
830.5000	0.0533136
830.0000	0.0536341
829.5000	0.0538506
829.0000	0.0541921
828.5000	0.0544246
828.0000	0.0547475
827.5000	0.0549866
827.0000	0.0553488
826.5000	0.0555756
826.0000	0.0559101
825.5000	0.0561549
825.0000	0.0565303
824.5000	0.0568222
824.0000	0.0571567
823.5000	0.0574141
823.0000	0.057805
822.5000	0.0580554
822.0000	0.0584839
821.5000	0.0587536
821.0000	0.0591505
820.5000	0.0594065
820.0000	0.0598215
819.5000	0.0601021
819.0000	0.0605344
818.5000	0.0608002
818.0000	0.0612179
817.5000	0.061515
817.0000	0.0619694
816.5000	0.0622722
816.0000	0.0627406
815.5000	0.0630068
815.0000	0.0634871
814.5000	0.063789
814.0000	0.0642868
813.5000	0.0646181
813.0000	0.065144
812.5000	0.0654779
812.0000	0.0659942
811.5000	0.0663451
811.0000	0.0668714
810.5000	0.0672336
810.0000	0.0677368
809.5000	0.0680915
809.0000	0.0686681
808.5000	0.0690513
808.0000	0.0695653
807.5000	0.0699295
807.0000	0.0704569
806.5000	0.0708109
806.0000	0.0713859
805.5000	0.0717614
805.0000	0.072303
804.5000	0.0726703
804.0000	0.0732407
803.5000	0.0736451
803.0000	0.0742481
802.5000	0.0746708
802.0000	0.0752734
801.5000	0.0756945
801.0000	0.0763101
800.5000	0.0767312
800.0000	0.0773697
799.5000	0.0777956
799.0000	0.0784496
798.5000	0.0789067
798.0000	0.0795549
797.5000	0.079989
797.0000	0.0806457
796.5000	0.0810868
796.0000	0.0817447
795.5000	0.0821981
795.0000	0.0828777
794.5000	0.083344
794.0000	0.0840467
793.5000	0.0845233
793.0000	0.085235
792.5000	0.0857316
792.0000	0.0863985
791.5000	0.086858
791.0000	0.087599
790.5000	0.0880691
790.0000	0.0888115
789.5000	0.089338
789.0000	0.0900795
788.5000	0.0905819
788.0000	0.091376
787.5000	0.0918748
787.0000	0.092635
786.5000	0.0931513
786.0000	0.0939472
785.5000	0.0945104
785.0000	0.0953211
784.5000	0.0958739
784.0000	0.0967039
783.5000	0.0972328
783.0000	0.0980391
782.5000	0.0985966
782.0000	0.0994322
781.5000	0.0999727
781.0000	0.100838
780.5000	0.101411
780.0000	0.102252
779.5000	0.102806
779.0000	0.103659
778.5000	0.104239
778.0000	0.105099
777.5000	0.1057
777.0000	0.106612
776.5000	0.107184
776.0000	0.10809
775.5000	0.108674
775.0000	0.109555
774.5000	0.110158
774.0000	0.111088
773.5000	0.111701
773.0000	0.112637
772.5000	0.113261
772.0000	0.114198
771.5000	0.1148
771.0000	0.11574
770.5000	0.116363
770.0000	0.117317
769.5000	0.117967
769.0000	0.118932
768.5000	0.119585
768.0000	0.120541
767.5000	0.12119
767.0000	0.122202
766.5000	0.122867
766.0000	0.123891
765.5000	0.124569
765.0000	0.125614
764.5000	0.126269
764.0000	0.127305
763.5000	0.128031
763.0000	0.129088
762.5000	0.129788
762.0000	0.130872
761.5000	0.131594
761.0000	0.132646
760.5000	0.133368
760.0000	0.134419
759.5000	0.135157
759.0000	0.136229
758.5000	0.136995
758.0000	0.138122
757.5000	0.138863
757.0000	0.139964
756.5000	0.140724
756.0000	0.141884
755.5000	0.142632
755.0000	0.14379
754.5000	0.144566
754.0000	0.145744
753.5000	0.146549
753.0000	0.147761
752.5000	0.148564
752.0000	0.149786
751.5000	0.15061
751.0000	0.151833
750.5000	0.152659
750.0000	0.153879
749.5000	0.154724
749.0000	0.155988
748.5000	0.156836
748.0000	0.158109
747.5000	0.15895
747.0000	0.160232
746.5000	0.161091
746.0000	0.162408
745.5000	0.163273
745.0000	0.16458
744.5000	0.165467
744.0000	0.166761
743.5000	0.167659
743.0000	0.168974
742.5000	0.169867
742.0000	0.171215
741.5000	0.172133
741.0000	0.173479
740.5000	0.174421
740.0000	0.175858
739.5000	0.176777
739.0000	0.178205
738.5000	0.179136
738.0000	0.180564
737.5000	0.181517
737.0000	0.182945
736.5000	0.183918
736.0000	0.185382
735.5000	0.186343
735.0000	0.187787
734.5000	0.188767
734.0000	0.190275
733.5000	0.191286
733.0000	0.192807
732.5000	0.193803
732.0000	0.195348
731.5000	0.196365
731.0000	0.197935
730.5000	0.198974
730.0000	0.200543
729.5000	0.201576
729.0000	0.203169
728.5000	0.204229
728.0000	0.205806
727.5000	0.206862
727.0000	0.208452
726.5000	0.209537
726.0000	0.211182
725.5000	0.212268
725.0000	0.213887
724.5000	0.214947
724.0000	0.216556
723.5000	0.217626
723.0000	0.219261
722.5000	0.220329
722.0000	0.221963
721.5000	0.223059
721.0000	0.22467
720.5000	0.225751
720.0000	0.227364
719.5000	0.228456
719.0000	0.230065
718.5000	0.231157
718.0000	0.232827
717.5000	0.233917
717.0000	0.23556
716.5000	0.236653
716.0000	0.238303
715.5000	0.239384
715.0000	0.241032
714.5000	0.24213
714.0000	0.243749
713.5000	0.244806
713.0000	0.24641
712.5000	0.247496
712.0000	0.249059
711.5000	0.250086
711.0000	0.251638
710.5000	0.252696
710.0000	0.254245
709.5000	0.255256
709.0000	0.256752
708.5000	0.25774
708.0000	0.259217
707.5000	0.260182
707.0000	0.261625
706.5000	0.262553
706.0000	0.263909
705.5000	0.264821
705.0000	0.26615
704.5000	0.267041
704.0000	0.268284
703.5000	0.269119
703.0000	0.270338
702.5000	0.27113
702.0000	0.272276
701.5000	0.273032
701.0000	0.274148
700.5000	0.274846
700.0000	0.275894
699.5000	0.276574
699.0000	0.277551
698.5000	0.278181
698.0000	0.279073
697.5000	0.279643
697.0000	0.28045
696.5000	0.280971
696.0000	0.281722
695.5000	0.282211
695.0000	0.282903
694.5000	0.2833
694.0000	0.283908
693.5000	0.28428
693.0000	0.284782
692.5000	0.285112
692.0000	0.285576
691.5000	0.285839
691.0000	0.28622
690.5000	0.286428
690.0000	0.286734
689.5000	0.286921
689.0000	0.287136
688.5000	0.287262
688.0000	0.287449
687.5000	0.287553
687.0000	0.287657
686.5000	0.287734
686.0000	0.287771
685.5000	0.287777
685.0000	0.287782
684.5000	0.287774
684.0000	0.287727
683.5000	0.287671
683.0000	0.287573
682.5000	0.287461
682.0000	0.287296
681.5000	0.287157
681.0000	0.286921
680.5000	0.286767
680.0000	0.286474
679.5000	0.286279
679.0000	0.286007
678.5000	0.285811
678.0000	0.285487
677.5000	0.28526
677.0000	0.284908
676.5000	0.284654
676.0000	0.284294
675.5000	0.284009
675.0000	0.283583
674.5000	0.283281
674.0000	0.282815
673.5000	0.282533
673.0000	0.282069
672.5000	0.281744
672.0000	0.281253
671.5000	0.28089
671.0000	0.280364
670.5000	0.280015
670.0000	0.279475
669.5000	0.279102
669.0000	0.278564
668.5000	0.278209
668.0000	0.277662
667.5000	0.277278
667.0000	0.276704
666.5000	0.276331
666.0000	0.275753
665.5000	0.275355
665.0000	0.274792
664.5000	0.274396
664.0000	0.273833
663.5000	0.273467
663.0000	0.272898
662.5000	0.272508
662.0000	0.271924
661.5000	0.271548
661.0000	0.270989
660.5000	0.270613
660.0000	0.270056
659.5000	0.269695
659.0000	0.269123
658.5000	0.26875
658.0000	0.268181
657.5000	0.2678
657.0000	0.267218
656.5000	0.266833
656.0000	0.266308
655.5000	0.265943
655.0000	0.265399
654.5000	0.265037
654.0000	0.26451
653.5000	0.264152
653.0000	0.2636
652.5000	0.263248
652.0000	0.262734
651.5000	0.262404
651.0000	0.261884
650.5000	0.26155
650.0000	0.261053
649.5000	0.260712
649.0000	0.260224
648.5000	0.259891
648.0000	0.259409
647.5000	0.259074
647.0000	0.258575
646.5000	0.258269
646.0000	0.257794
645.5000	0.257479
645.0000	0.257003
644.5000	0.256691
644.0000	0.2562
643.5000	0.255889
643.0000	0.255417
642.5000	0.2551
642.0000	0.254614
641.5000	0.254288
641.0000	0.25381
640.5000	0.253492
640.0000	0.252989
639.5000	0.252664
639.0000	0.252173
638.5000	0.251849
638.0000	0.25134
637.5000	0.251004
637.0000	0.250476
636.5000	0.250122
636.0000	0.249618
635.5000	0.249263
635.0000	0.248719
634.5000	0.248357
634.0000	0.24777
633.5000	0.247414
633.0000	0.246836
632.5000	0.246427
632.0000	0.245812
631.5000	0.245418
631.0000	0.244778
630.5000	0.244374
630.0000	0.243725
629.5000	0.243277
629.0000	0.242618
628.5000	0.242153
628.0000	0.24145
627.5000	0.240997
627.0000	0.240253
626.5000	0.239743
626.0000	0.239012
625.5000	0.238511
625.0000	0.237733
624.5000	0.237224
624.0000	0.236397
623.5000	0.235845
623.0000	0.235012
622.5000	0.23445
622.0000	0.233593
621.5000	0.233004
621.0000	0.232121
620.5000	0.231531
620.0000	0.230617
619.5000	0.230007
619.0000	0.229075
618.5000	0.22844
618.0000	0.227496
617.5000	0.226862
617.0000	0.225895
616.5000	0.225227
616.0000	0.224231
615.5000	0.223576
615.0000	0.222558
614.5000	0.221872
614.0000	0.220846
613.5000	0.220179
613.0000	0.219157
612.5000	0.218473
612.0000	0.217431
611.5000	0.216729
611.0000	0.215678
610.5000	0.214989
610.0000	0.213924
609.5000	0.213232
609.0000	0.212158
608.5000	0.211456
608.0000	0.210384
607.5000	0.209675
607.0000	0.208585
606.5000	0.207856
606.0000	0.206783
605.5000	0.206065
605.0000	0.204975
604.5000	0.204246
604.0000	0.20316
603.5000	0.202443
603.0000	0.201363
602.5000	0.200651
602.0000	0.199588
601.5000	0.198866
601.0000	0.197801
600.5000	0.197091
600.0000	0.19602
599.5000	0.195294
599.0000	0.194261
598.5000	0.193573
598.0000	0.19253
597.5000	0.19183
597.0000	0.190799
596.5000	0.190117
596.0000	0.189081
595.5000	0.188409
595.0000	0.187404
594.5000	0.186733
594.0000	0.18574
593.5000	0.185086
593.0000	0.184123
592.5000	0.183455
592.0000	0.182477
591.5000	0.181831
591.0000	0.180874
590.5000	0.180228
590.0000	0.179274
589.5000	0.178644
589.0000	0.1777
588.5000	0.177078
588.0000	0.17614
587.5000	0.175537
587.0000	0.174626
586.5000	0.174022
586.0000	0.17312
585.5000	0.172527
585.0000	0.171632
584.5000	0.171053
584.0000	0.170175
583.5000	0.169593
583.0000	0.168721
582.5000	0.168117
582.0000	0.167264
581.5000	0.166684
581.0000	0.165798
580.5000	0.165207
580.0000	0.164354
579.5000	0.163784
579.0000	0.162932
578.5000	0.162367
578.0000	0.161542
577.5000	0.160977
577.0000	0.160136
576.5000	0.159564
576.0000	0.158744
575.5000	0.158183
575.0000	0.157361
574.5000	0.156823
574.0000	0.15601
573.5000	0.155443
573.0000	0.154613
572.5000	0.154076
572.0000	0.153241
571.5000	0.152707
571.0000	0.15192
570.5000	0.151387
570.0000	0.150559
569.5000	0.150029
569.0000	0.149217
568.5000	0.148671
568.0000	0.147853
567.5000	0.147322
567.0000	0.14654
566.5000	0.146007
566.0000	0.145207
565.5000	0.14468
565.0000	0.143849
564.5000	0.143287
564.0000	0.142478
563.5000	0.141945
563.0000	0.141131
562.5000	0.140603
562.0000	0.139813
561.5000	0.13928
561.0000	0.138484
560.5000	0.137934
560.0000	0.137129
559.5000	0.136589
559.0000	0.135786
558.5000	0.135265
558.0000	0.134481
557.5000	0.133948
557.0000	0.133159
556.5000	0.132633
556.0000	0.131851
555.5000	0.131319
555.0000	0.130525
554.5000	0.129998
554.0000	0.129218
553.5000	0.12869
553.0000	0.127913
552.5000	0.127402
552.0000	0.126627
551.5000	0.126097
551.0000	0.125339
550.5000	0.124834
550.0000	0.124062
549.5000	0.123544
549.0000	0.122783
548.5000	0.122263
548.0000	0.121512
547.5000	0.12101
547.0000	0.120285
546.5000	0.119795
546.0000	0.119071
545.5000	0.118582
545.0000	0.11786
544.5000	0.117386
544.0000	0.116657
543.5000	0.116181
543.0000	0.115462
542.5000	0.115009
542.0000	0.114313
541.5000	0.113839
541.0000	0.113152
540.5000	0.112669
540.0000	0.11199
539.5000	0.111535
539.0000	0.110873
538.5000	0.110427
538.0000	0.10976
537.5000	0.109339
537.0000	0.108696
536.5000	0.108267
536.0000	0.107603
535.5000	0.107178
535.0000	0.106562
534.5000	0.106146
534.0000	0.105521
533.5000	0.105105
533.0000	0.104464
532.5000	0.104048
532.0000	0.103414
531.5000	0.103022
531.0000	0.102414
530.5000	0.102008
530.0000	0.101436
529.5000	0.101072
529.0000	0.100488
528.5000	0.100092
528.0000	0.0994951
527.5000	0.0991098
527.0000	0.0985454
526.5000	0.0981564
526.0000	0.0975773
525.5000	0.0972141
525.0000	0.096649
524.5000	0.0962711
524.0000	0.0957239
523.5000	0.0953575
523.0000	0.0947818
522.5000	0.094426
522.0000	0.093905
521.5000	0.0935431
521.0000	0.0930388
520.5000	0.0926806
520.0000	0.0921863
519.5000	0.0918555
519.0000	0.0913412
518.5000	0.0910078
518.0000	0.0904783
517.5000	0.0901506
517.0000	0.0896419
516.5000	0.0893051
516.0000	0.088833
515.5000	0.0885019
515.0000	0.0880214
514.5000	0.0877198
514.0000	0.0872332
513.5000	0.0868957
513.0000	0.0864411
512.5000	0.0861361
512.0000	0.0856845
511.5000	0.0854032
511.0000	0.0849513
510.5000	0.0846551
510.0000	0.0842195
509.5000	0.0839381
509.0000	0.0835236
508.5000	0.0832409
508.0000	0.08282
507.5000	0.0825497
507.0000	0.0821478
506.5000	0.0818757
506.0000	0.0814707
505.5000	0.0811872
505.0000	0.0807859
504.5000	0.0805214
504.0000	0.0801495
503.5000	0.0799116
503.0000	0.0795318
502.5000	0.0792938
502.0000	0.0789187
501.5000	0.0786827
501.0000	0.0783253
500.5000	0.0781017
500.0000	0.0777638
499.5000	0.0775423
499.0000	0.0772169
498.5000	0.0770212
498.0000	0.0766917
497.5000	0.0764808
497.0000	0.0761689
496.5000	0.0759777
496.0000	0.075666
495.5000	0.0755022
495.0000	0.0752214
494.5000	0.0750521
494.0000	0.0747885
493.5000	0.0746255
493.0000	0.0743825
492.5000	0.0742368
492.0000	0.0740085
491.5000	0.0738609
491.0000	0.0736401
490.5000	0.0735317
490.0000	0.07332
489.5000	0.0731992
489.0000	0.0729821
488.5000	0.0728687
488.0000	0.0727098
487.5000	0.0725895
487.0000	0.0724366
486.5000	0.0723512
486.0000	0.072224
485.5000	0.0721394
485.0000	0.0720316
484.5000	0.0719676
484.0000	0.0718384
483.5000	0.0717682
483.0000	0.0716968
482.5000	0.0716363
482.0000	0.0715574
481.5000	0.0714747
481.0000	0.0714212
480.5000	0.0713659
480.0000	0.0712961
479.5000	0.0712512
479.0000	0.0712048
478.5000	0.0711843
478.0000	0.0711521
477.5000	0.0711592
477.0000	0.071155
476.5000	0.0711434
476.0000	0.071156
475.5000	0.0711815
475.0000	0.0712231
474.5000	0.0712226
474.0000	0.0712635
473.5000	0.0712964
473.0000	0.0713463
472.5000	0.0713739
472.0000	0.0714503
471.5000	0.0714838
471.0000	0.071555
470.5000	0.0716226
470.0000	0.0717395
469.5000	0.0718186
469.0000	0.0719341
468.5000	0.0720069
468.0000	0.0721527
467.5000	0.0722535
467.0000	0.0723844
466.5000	0.072497
466.0000	0.0726636
465.5000	0.0727724
465.0000	0.0729748
464.5000	0.0731024
464.0000	0.0733065
463.5000	0.0734217
463.0000	0.0736265
462.5000	0.0737533
462.0000	0.0739883
461.5000	0.0741648
461.0000	0.0744381
460.5000	0.074622
460.0000	0.074886
459.5000	0.0750901
459.0000	0.075374
458.5000	0.0755824
458.0000	0.0758894
457.5000	0.0761105
457.0000	0.0764809
456.5000	0.0767106
456.0000	0.0770776
455.5000	0.0773389
455.0000	0.0777385
454.5000	0.0780122
454.0000	0.0784424
453.5000	0.0787462
453.0000	0.0792124
452.5000	0.0795429
452.0000	0.0800278
451.5000	0.0803823
451.0000	0.0809232
450.5000	0.081298
450.0000	0.0819114
449.5000	0.0823183
449.0000	0.0829526
448.5000	0.0834097
448.0000	0.0841281
447.5000	0.0846148
447.0000	0.0853814
446.5000	0.0859185
446.0000	0.0867528
445.5000	0.0873157
445.0000	0.0882038
444.5000	0.0888464
444.0000	0.0898447
443.5000	0.0905403
443.0000	0.0916022
442.5000	0.0923563
442.0000	0.0935024
441.5000	0.094292
441.0000	0.0955375
440.5000	0.0964179
440.0000	0.0977723
439.5000	0.0987033
439.0000	0.10015
438.5000	0.101147
438.0000	0.102669
437.5000	0.103753
437.0000	0.105422
436.5000	0.106591
436.0000	0.108392
435.5000	0.109644
435.0000	0.111576
434.5000	0.112894
434.0000	0.114941
433.5000	0.116369
433.0000	0.118583
432.5000	0.120126
432.0000	0.122511
431.5000	0.12417
431.0000	0.126682
430.5000	0.128428
430.0000	0.131118
429.5000	0.132999
429.0000	0.135895
428.5000	0.137892
428.0000	0.140957
427.5000	0.143022
427.0000	0.146249
426.5000	0.148439
426.0000	0.151777
425.5000	0.154078
425.0000	0.15762
424.5000	0.160039
424.0000	0.163751
423.5000	0.166282
423.0000	0.170165
422.5000	0.172795
422.0000	0.176848
421.5000	0.179585
421.0000	0.183797
420.5000	0.18661
420.0000	0.190946
419.5000	0.193888
419.0000	0.19837
418.5000	0.201402
418.0000	0.206003
417.5000	0.209161
417.0000	0.213903
416.5000	0.217122
416.0000	0.221979
415.5000	0.225278
415.0000	0.23027
414.5000	0.23365
414.0000	0.238761
413.5000	0.242209
413.0000	0.247399
412.5000	0.250854
412.0000	0.256096
411.5000	0.259569
411.0000	0.26482
410.5000	0.268319
410.0000	0.273758
409.5000	0.277319
409.0000	0.282635
408.5000	0.286222
408.0000	0.291549
407.5000	0.295122
407.0000	0.300421
406.5000	0.303957
406.0000	0.309234
405.5000	0.312781
405.0000	0.318074
404.5000	0.321574
404.0000	0.326787
403.5000	0.330235
403.0000	0.33537
402.5000	0.338804
402.0000	0.343817
401.5000	0.347198
401.0000	0.352188
400.5000	0.355429
400.0000	0.360158
399.5000	0.363179
399.0000	0.367665
398.5000	0.37058
398.0000	0.374844
397.5000	0.377567
397.0000	0.38153
396.5000	0.384048
396.0000	0.387612
395.5000	0.389902
395.0000	0.393047
394.5000	0.395022
394.0000	0.397835
393.5000	0.399608
393.0000	0.402127
392.5000	0.403651
392.0000	0.405732
391.5000	0.407006
391.0000	0.4088
390.5000	0.409871
390.0000	0.411386
389.5000	0.412296
389.0000	0.413512
388.5000	0.414295
388.0000	0.415359
387.5000	0.415954
387.0000	0.416813
386.5000	0.417346
386.0000	0.418059
385.5000	0.418535
385.0000	0.419187
384.5000	0.419544
384.0000	0.420077
383.5000	0.420437
383.0000	0.420895
382.5000	0.421188
382.0000	0.421611
381.5000	0.421803
381.0000	0.422123
380.5000	0.422292
380.0000	0.422512
379.5000	0.422645
379.0000	0.422804
378.5000	0.42286
378.0000	0.422926
377.5000	0.422886
377.0000	0.422822
376.5000	0.422694
376.0000	0.422507
375.5000	0.422326
375.0000	0.422008
374.5000	0.421746
374.0000	0.421274
373.5000	0.420892
373.0000	0.420245
372.5000	0.419757
372.0000	0.418942
371.5000	0.41837
371.0000	0.417457
370.5000	0.416733
370.0000	0.415734
369.5000	0.414947
369.0000	0.413731
368.5000	0.412841
368.0000	0.411414
367.5000	0.410467
367.0000	0.408975
366.5000	0.407912
366.0000	0.406271
365.5000	0.405166
365.0000	0.40355
364.5000	0.402395
364.0000	0.400578
363.5000	0.399416
363.0000	0.397549
362.5000	0.396296
362.0000	0.394309
361.5000	0.393
361.0000	0.390887
360.5000	0.389447
360.0000	0.387363
359.5000	0.385931
359.0000	0.38364
358.5000	0.382112
358.0000	0.379768
357.5000	0.378192
357.0000	0.375767
356.5000	0.3741
356.0000	0.371559
355.5000	0.36988
355.0000	0.367361
354.5000	0.365654
354.0000	0.363067
353.5000	0.361284
353.0000	0.358667
352.5000	0.356943
352.0000	0.354338
351.5000	0.352645
351.0000	0.350056
350.5000	0.348308
350.0000	0.345673
349.5000	0.34396
349.0000	0.341414
348.5000	0.339679
348.0000	0.337103
347.5000	0.335405
347.0000	0.332854
346.5000	0.331208
346.0000	0.328686
345.5000	0.327003
345.0000	0.324474
344.5000	0.322792
344.0000	0.320389
343.5000	0.318801
343.0000	0.316424
342.5000	0.314868
342.0000	0.312533
341.5000	0.310969
341.0000	0.308664
340.5000	0.307222
340.0000	0.305503
339.5000	0.30413
339.0000	0.302037
338.5000	0.300612
338.0000	0.298489
337.5000	0.297103
337.0000	0.294975
336.5000	0.293535
336.0000	0.291507
335.5000	0.290191
335.0000	0.288185
334.5000	0.286839
334.0000	0.284934
333.5000	0.283681
333.0000	0.281773
332.5000	0.280554
332.0000	0.278766
331.5000	0.277553
331.0000	0.275838
330.5000	0.274718
330.0000	0.27306
329.5000	0.272003
329.0000	0.270341
328.5000	0.269217
328.0000	0.267556
327.5000	0.266489
327.0000	0.264901
326.5000	0.263867
326.0000	0.262325
325.5000	0.26127
325.0000	0.259627
324.5000	0.258542
324.0000	0.257037
323.5000	0.256001
323.0000	0.254441
322.5000	0.253425
322.0000	0.251943
321.5000	0.250942
321.0000	0.249383
320.5000	0.248309
320.0000	0.246806
319.5000	0.245759
319.0000	0.244288
318.5000	0.243339
318.0000	0.241777
317.5000	0.240789
317.0000	0.239212
316.5000	0.238118
316.0000	0.236522
315.5000	0.235466
315.0000	0.233762
314.5000	0.232749
314.0000	0.231285
313.5000	0.230255
313.0000	0.228599
312.5000	0.227634
312.0000	0.226226
311.5000	0.225272
311.0000	0.223782
310.5000	0.222821
310.0000	0.221467
309.5000	0.220678
309.0000	0.219462
308.5000	0.218796
308.0000	0.217753
307.5000	0.216846
307.0000	0.215683
306.5000	0.215026
306.0000	0.213907
305.5000	0.213213
305.0000	0.212267
304.5000	0.211598
304.0000	0.210715
303.5000	0.210284
303.0000	0.209684
302.5000	0.209195
302.0000	0.20817
301.5000	0.207805
301.0000	0.207456
300.5000	0.206788
300.0000	0.206183
299.5000	0.20595
299.0000	0.20553
298.5000	0.205173
298.0000	0.205197
297.5000	0.205122
297.0000	0.20458
296.5000	0.204075
296.0000	0.204371
295.5000	0.203758
295.0000	0.204013
294.5000	0.203917
294.0000	0.204707
293.5000	0.206119
293.0000	0.207122
292.5000	0.20706
292.0000	0.207095
291.5000	0.208792
291.0000	0.210817
290.5000	0.211032
290.0000	0.21251
289.5000	0.21244
289.0000	0.212908
288.5000	0.214804
288.0000	0.21554
287.5000	0.217003
287.0000	0.214059
286.5000	0.21578
286.0000	0.219243
285.5000	0.219526
285.0000	0.216319
284.5000	0.213166
284.0000	0.213141
283.5000	0.211788
283.0000	0.215104
282.5000	0.215922
282.0000	0.213612
281.5000	0.212331
281.0000	0.212451
280.5000	0.212821
280.0000	0.212165
279.5000	0.211466
279.0000	0.209621
278.5000	0.209147
278.0000	0.209803
277.5000	0.212094
277.0000	0.208765
276.5000	0.209099
276.0000	0.207902
275.5000	0.2061
275.0000	0.204885
274.5000	0.205061
274.0000	0.203877
273.5000	0.205262
273.0000	0.205895
272.5000	0.205842
272.0000	0.203989
271.5000	0.205733
271.0000	0.19968
270.5000	0.201088
270.0000	0.199767
269.5000	0.197858
269.0000	0.197514
268.5000	0.196702
268.0000	0.192716
267.5000	0.193196
267.0000	0.191325
266.5000	0.192088
266.0000	0.189482
265.5000	0.189802
265.0000	0.184717
264.5000	0.187199
264.0000	0.187538
263.5000	0.188687
263.0000	0.18463
262.5000	0.184638
262.0000	0.188707
261.5000	0.190119
261.0000	0.184985
260.5000	0.186059
260.0000	0.181738
259.5000	0.186125
259.0000	0.187749
258.5000	0.18958
258.0000	0.187761
257.5000	0.186887
257.0000	0.184681
256.5000	0.189942
256.0000	0.185644
255.5000	0.187485
255.0000	0.189268
254.5000	0.1903
254.0000	0.191256
253.5000	0.193938
253.0000	0.188184
252.5000	0.189667
252.0000	0.190437
251.5000	0.18876
251.0000	0.185864
250.5000	0.188199
250.0000	0.185128
249.5000	0.189368
249.0000	0.188962
248.5000	0.185418
248.0000	0.184258
247.5000	0.182285
247.0000	0.180967
246.5000	0.181958
246.0000	0.176629
245.5000	0.177196
245.0000	0.181796
244.5000	0.184921
244.0000	0.184203
243.5000	0.180131
243.0000	0.17559
242.5000	0.174791
242.0000	0.177952
241.5000	0.175504
241.0000	0.179038
240.5000	0.177589
240.0000	0.180032
239.5000	0.179086
239.0000	0.182654
238.5000	0.180146
238.0000	0.176862
237.5000	0.17441
237.0000	0.177087
236.5000	0.17553
236.0000	0.172962
235.5000	0.172259
235.0000	0.173872
234.5000	0.173765
234.0000	0.175563
233.5000	0.17685
233.0000	0.180684
232.5000	0.178307
232.0000	0.179064
231.5000	0.182828
231.0000	0.185714
230.5000	0.18564
230.0000	0.189264
229.5000	0.191657
229.0000	0.19094
228.5000	0.187566
228.0000	0.190446
227.5000	0.192221
227.0000	0.194309
226.5000	0.190481
226.0000	0.188864
225.5000	0.187311
225.0000	0.184474
224.5000	0.18652
224.0000	0.18516
223.5000	0.185482
223.0000	0.187641
222.5000	0.184963
222.0000	0.182766
221.5000	0.179796
221.0000	0.177206
220.5000	0.175188
220.0000	0.180756
219.5000	0.179844
219.0000	0.184162
218.5000	0.185905
218.0000	0.186524
217.5000	0.188462
217.0000	0.187712
216.5000	0.188342
216.0000	0.194501
215.5000	0.194385
215.0000	0.192931
214.5000	0.195937
214.0000	0.197814
213.5000	0.194812
213.0000	0.194041
212.5000	0.191796
212.0000	0.193338
211.5000	0.19222
211.0000	0.189588
210.5000	0.193584
210.0000	0.191174
209.5000	0.188945
209.0000	0.190245
208.5000	0.194335
208.0000	0.193111
207.5000	0.198401
207.0000	0.204459
206.5000	0.206038
206.0000	0.202892
205.5000	0.202296
205.0000	0.203569
204.5000	0.206998
204.0000	0.207138
203.5000	0.208504
203.0000	0.210755
202.5000	0.211234
202.0000	0.207506
201.5000	0.205838
201.0000	0.200467
200.5000	0.198519
200.0000	0.199765

##### Extended Information
[Comments]
Sample name	N2200
Comment	CNCF
User
Division
Company	ICMAB

[Detailed Information]
Creation date	21/10/25 2:06 PM

Data array type	Linear data array
Horizontal axis	Wavelength [nm]
Vertical axis	Abs
Start	1600 nm
End	200 nm
Data interval	0.5 nm
Data points	2801    

[Measurement Information]
Instrument name	V-780
Model name	V-780
Serial No.	D003961802

Accessory	FLH-741
Accessory S/N	B057261128
  Mask	
  Ref. beam	

Measurement date	21/10/25 2:05 PM

Photometric mode	Abs
Measurement range	1600 - 200 nm
Data interval	0.5 nm
UV/Vis bandwidth	1.0 nm
NIR bandwidth	2.0 nm
UV/Vis response	0.96 sec
NIR response	0.96 sec
Scan mode	Continuous
Scan speed	400 nm/min
Change source at	340 nm
Change grating at	850 nm
Light source	D2/WI
Filter exchange	Step
Correction	Baseline
No. of cycles	1

