TITLE	N2200
DATA TYPE	ULTRAVIOLET SPECTRUM
ORIGIN	JASCO
OWNER	
DATE	21/10/25
TIME	14:29:24
SPECTROMETER/DATA SYSTEM	
LOCALE	1033
RESOLUTION	
DELTAX	-0.5
XUNITS	NANOMETERS
YUNITS	ABSORBANCE
FIRSTX	 1600.0000
LASTX	  200.0000
NPOINTS	    2801
FIRSTY	     0.00376
MAXY	     0.24411
MINY	     0.00376
XYDATA
1600.0000	0.00376155
1599.5000	0.00376579
1599.0000	0.00376977
1598.5000	0.00377236
1598.0000	0.00377721
1597.5000	0.00377929
1597.0000	0.00378176
1596.5000	0.00378136
1596.0000	0.00378277
1595.5000	0.00378434
1595.0000	0.00379116
1594.5000	0.00379177
1594.0000	0.00379341
1593.5000	0.0037968
1593.0000	0.0038007
1592.5000	0.00380341
1592.0000	0.00380988
1591.5000	0.003811
1591.0000	0.00381752
1590.5000	0.00381916
1590.0000	0.00382566
1589.5000	0.00382737
1589.0000	0.00383178
1588.5000	0.00383217
1588.0000	0.00384
1587.5000	0.00384247
1587.0000	0.00384754
1586.5000	0.00384921
1586.0000	0.00385474
1585.5000	0.00385732
1585.0000	0.00386214
1584.5000	0.00386634
1584.0000	0.00387202
1583.5000	0.00387511
1583.0000	0.00388142
1582.5000	0.0038871
1582.0000	0.0038931
1581.5000	0.00389906
1581.0000	0.00390649
1580.5000	0.00391135
1580.0000	0.0039162
1579.5000	0.00391853
1579.0000	0.00392309
1578.5000	0.00392727
1578.0000	0.0039317
1577.5000	0.00393548
1577.0000	0.00393935
1576.5000	0.00393875
1576.0000	0.0039416
1575.5000	0.00394225
1575.0000	0.00394645
1574.5000	0.00394797
1574.0000	0.00395323
1573.5000	0.00395821
1573.0000	0.00396325
1572.5000	0.0039664
1572.0000	0.00397266
1571.5000	0.00397649
1571.0000	0.0039809
1570.5000	0.00398683
1570.0000	0.0039927
1569.5000	0.00399467
1569.0000	0.00400177
1568.5000	0.00400223
1568.0000	0.00400123
1567.5000	0.00400107
1567.0000	0.00400452
1566.5000	0.00400707
1566.0000	0.00400779
1565.5000	0.00400708
1565.0000	0.00400489
1564.5000	0.00400758
1564.0000	0.00400948
1563.5000	0.00401409
1563.0000	0.00401841
1562.5000	0.0040194
1562.0000	0.00402615
1561.5000	0.00402848
1561.0000	0.00402958
1560.5000	0.00403299
1560.0000	0.00403525
1559.5000	0.00404237
1559.0000	0.00404688
1558.5000	0.00405013
1558.0000	0.00405326
1557.5000	0.00405656
1557.0000	0.00406035
1556.5000	0.0040615
1556.0000	0.00406315
1555.5000	0.00406648
1555.0000	0.00407499
1554.5000	0.00407709
1554.0000	0.00407759
1553.5000	0.00408372
1553.0000	0.00408904
1552.5000	0.00409078
1552.0000	0.00409751
1551.5000	0.00410392
1551.0000	0.00410811
1550.5000	0.00411034
1550.0000	0.00411653
1549.5000	0.0041226
1549.0000	0.00412745
1548.5000	0.00413232
1548.0000	0.00414173
1547.5000	0.00414683
1547.0000	0.0041471
1546.5000	0.0041501
1546.0000	0.00415726
1545.5000	0.00416124
1545.0000	0.00416133
1544.5000	0.00416741
1544.0000	0.00417382
1543.5000	0.00417641
1543.0000	0.00417991
1542.5000	0.00418352
1542.0000	0.00418441
1541.5000	0.00418679
1541.0000	0.00419305
1540.5000	0.00419768
1540.0000	0.00420148
1539.5000	0.00420475
1539.0000	0.00421043
1538.5000	0.00421547
1538.0000	0.00421859
1537.5000	0.00422064
1537.0000	0.00422832
1536.5000	0.00423231
1536.0000	0.00423784
1535.5000	0.00424314
1535.0000	0.00424921
1534.5000	0.00425307
1534.0000	0.00425483
1533.5000	0.00426039
1533.0000	0.00426532
1532.5000	0.00426688
1532.0000	0.00427389
1531.5000	0.00428027
1531.0000	0.00428425
1530.5000	0.00428535
1530.0000	0.00428941
1529.5000	0.00429512
1529.0000	0.00430217
1528.5000	0.00430814
1528.0000	0.00431531
1527.5000	0.0043208
1527.0000	0.00432564
1526.5000	0.0043269
1526.0000	0.00433116
1525.5000	0.00433284
1525.0000	0.00433687
1524.5000	0.00434171
1524.0000	0.00434689
1523.5000	0.00434976
1523.0000	0.00435142
1522.5000	0.00435288
1522.0000	0.00435248
1521.5000	0.0043553
1521.0000	0.00435429
1520.5000	0.00435619
1520.0000	0.00435815
1519.5000	0.00436088
1519.0000	0.00436197
1518.5000	0.00436778
1518.0000	0.00437101
1517.5000	0.00437395
1517.0000	0.00437761
1516.5000	0.0043807
1516.0000	0.00438763
1515.5000	0.00439054
1515.0000	0.00439422
1514.5000	0.00440178
1514.0000	0.00441038
1513.5000	0.00441951
1513.0000	0.00442789
1512.5000	0.004435
1512.0000	0.00443832
1511.5000	0.00444153
1511.0000	0.00444483
1510.5000	0.00445165
1510.0000	0.00445631
1509.5000	0.00445959
1509.0000	0.00446641
1508.5000	0.00446964
1508.0000	0.00447413
1507.5000	0.00447669
1507.0000	0.00447672
1506.5000	0.00447937
1506.0000	0.00448307
1505.5000	0.00448743
1505.0000	0.00449089
1504.5000	0.00449673
1504.0000	0.00449743
1503.5000	0.00449758
1503.0000	0.00450002
1502.5000	0.00450244
1502.0000	0.00450565
1501.5000	0.00450866
1501.0000	0.00451358
1500.5000	0.0045173
1500.0000	0.00452025
1499.5000	0.00452374
1499.0000	0.00452762
1498.5000	0.00453164
1498.0000	0.00453498
1497.5000	0.00453887
1497.0000	0.00454169
1496.5000	0.00454653
1496.0000	0.00455236
1495.5000	0.00455755
1495.0000	0.00456426
1494.5000	0.00456866
1494.0000	0.00457415
1493.5000	0.00457982
1493.0000	0.00457963
1492.5000	0.00458451
1492.0000	0.00458934
1491.5000	0.00459593
1491.0000	0.0046018
1490.5000	0.00460653
1490.0000	0.00460692
1489.5000	0.00460821
1489.0000	0.00460995
1488.5000	0.00461335
1488.0000	0.00461674
1487.5000	0.00462074
1487.0000	0.00462681
1486.5000	0.00463217
1486.0000	0.00463471
1485.5000	0.00463783
1485.0000	0.00464051
1484.5000	0.00464414
1484.0000	0.00464969
1483.5000	0.00465771
1483.0000	0.00466607
1482.5000	0.00467321
1482.0000	0.0046789
1481.5000	0.00468412
1481.0000	0.00468789
1480.5000	0.00469185
1480.0000	0.0046958
1479.5000	0.00470266
1479.0000	0.00470371
1478.5000	0.00470946
1478.0000	0.00471901
1477.5000	0.0047219
1477.0000	0.00472342
1476.5000	0.00472685
1476.0000	0.00472823
1475.5000	0.00473148
1475.0000	0.00473291
1474.5000	0.0047386
1474.0000	0.00474254
1473.5000	0.00474758
1473.0000	0.00475159
1472.5000	0.00475844
1472.0000	0.00476592
1471.5000	0.00476851
1471.0000	0.00477479
1470.5000	0.00478379
1470.0000	0.00478767
1469.5000	0.00479288
1469.0000	0.00479983
1468.5000	0.00480648
1468.0000	0.00481139
1467.5000	0.00481466
1467.0000	0.00481832
1466.5000	0.00482258
1466.0000	0.00482737
1465.5000	0.00483187
1465.0000	0.00483792
1464.5000	0.00484297
1464.0000	0.00484549
1463.5000	0.00485193
1463.0000	0.00485798
1462.5000	0.0048615
1462.0000	0.00486177
1461.5000	0.00486567
1461.0000	0.00486879
1460.5000	0.00487095
1460.0000	0.00487415
1459.5000	0.00487652
1459.0000	0.00487798
1458.5000	0.00488058
1458.0000	0.00488438
1457.5000	0.00489073
1457.0000	0.00489543
1456.5000	0.00489836
1456.0000	0.0049034
1455.5000	0.00491028
1455.0000	0.00491575
1454.5000	0.00491934
1454.0000	0.00493135
1453.5000	0.00493953
1453.0000	0.00494767
1452.5000	0.00495218
1452.0000	0.00496251
1451.5000	0.00496649
1451.0000	0.00497054
1450.5000	0.00497289
1450.0000	0.00497784
1449.5000	0.00498371
1449.0000	0.00499026
1448.5000	0.00499762
1448.0000	0.00500907
1447.5000	0.00501249
1447.0000	0.00501583
1446.5000	0.00501843
1446.0000	0.00502124
1445.5000	0.00502371
1445.0000	0.00502913
1444.5000	0.00503806
1444.0000	0.00504335
1443.5000	0.00504537
1443.0000	0.00504689
1442.5000	0.0050507
1442.0000	0.00505214
1441.5000	0.00505366
1441.0000	0.00505936
1440.5000	0.00506185
1440.0000	0.00506859
1439.5000	0.0050739
1439.0000	0.00507651
1438.5000	0.00508048
1438.0000	0.00508374
1437.5000	0.00509071
1437.0000	0.00510455
1436.5000	0.00511077
1436.0000	0.00511569
1435.5000	0.0051176
1435.0000	0.0051233
1434.5000	0.00512804
1434.0000	0.00513638
1433.5000	0.00514043
1433.0000	0.00514708
1432.5000	0.00515271
1432.0000	0.00515648
1431.5000	0.0051599
1431.0000	0.00516496
1430.5000	0.00516626
1430.0000	0.0051717
1429.5000	0.00517666
1429.0000	0.00518591
1428.5000	0.00518595
1428.0000	0.00518467
1427.5000	0.00518527
1427.0000	0.00519568
1426.5000	0.00520001
1426.0000	0.00521021
1425.5000	0.0052157
1425.0000	0.00521969
1424.5000	0.00522175
1424.0000	0.00522967
1423.5000	0.00523199
1423.0000	0.00524175
1422.5000	0.00524402
1422.0000	0.00525621
1421.5000	0.00526655
1421.0000	0.00527461
1420.5000	0.0052798
1420.0000	0.00528246
1419.5000	0.0052872
1419.0000	0.00529193
1418.5000	0.00529896
1418.0000	0.00530968
1417.5000	0.00531514
1417.0000	0.00532586
1416.5000	0.00532763
1416.0000	0.00533349
1415.5000	0.0053368
1415.0000	0.0053397
1414.5000	0.0053432
1414.0000	0.00534395
1413.5000	0.00535009
1413.0000	0.00535704
1412.5000	0.00536408
1412.0000	0.00537221
1411.5000	0.00537598
1411.0000	0.00537984
1410.5000	0.00538434
1410.0000	0.00539389
1409.5000	0.00540126
1409.0000	0.0054103
1408.5000	0.00542015
1408.0000	0.00543458
1407.5000	0.0054407
1407.0000	0.00544642
1406.5000	0.00544703
1406.0000	0.00545056
1405.5000	0.00545487
1405.0000	0.00546705
1404.5000	0.00547418
1404.0000	0.00548226
1403.5000	0.00548381
1403.0000	0.00548588
1402.5000	0.00548803
1402.0000	0.0054866
1401.5000	0.00548727
1401.0000	0.00549827
1400.5000	0.00551207
1400.0000	0.00552773
1399.5000	0.00553256
1399.0000	0.00553655
1398.5000	0.00553907
1398.0000	0.00554202
1397.5000	0.00554463
1397.0000	0.00555726
1396.5000	0.00556478
1396.0000	0.00557459
1395.5000	0.00557938
1395.0000	0.00558976
1394.5000	0.00559185
1394.0000	0.00559109
1393.5000	0.00559505
1393.0000	0.00559797
1392.5000	0.00560247
1392.0000	0.00560644
1391.5000	0.00561384
1391.0000	0.00562009
1390.5000	0.00562367
1390.0000	0.00563318
1389.5000	0.00564167
1389.0000	0.00564987
1388.5000	0.00565232
1388.0000	0.00565779
1387.5000	0.00566358
1387.0000	0.00567625
1386.5000	0.00568318
1386.0000	0.00569426
1385.5000	0.00569852
1385.0000	0.0057012
1384.5000	0.00570694
1384.0000	0.00571674
1383.5000	0.00571986
1383.0000	0.00572365
1382.5000	0.00573029
1382.0000	0.00573828
1381.5000	0.00574253
1381.0000	0.00573714
1380.5000	0.00573412
1380.0000	0.00573339
1379.5000	0.00573434
1379.0000	0.00573951
1378.5000	0.00574293
1378.0000	0.00574398
1377.5000	0.00574565
1377.0000	0.00574913
1376.5000	0.00575079
1376.0000	0.00575467
1375.5000	0.00575716
1375.0000	0.00576276
1374.5000	0.00576717
1374.0000	0.00577171
1373.5000	0.0057775
1373.0000	0.00578284
1372.5000	0.00578395
1372.0000	0.00579035
1371.5000	0.00579081
1371.0000	0.00579282
1370.5000	0.00579715
1370.0000	0.00580385
1369.5000	0.00580412
1369.0000	0.00580322
1368.5000	0.00580435
1368.0000	0.00581393
1367.5000	0.00581868
1367.0000	0.0058221
1366.5000	0.00582216
1366.0000	0.00582681
1365.5000	0.00582881
1365.0000	0.00584046
1364.5000	0.00584932
1364.0000	0.0058533
1363.5000	0.00585836
1363.0000	0.00586473
1362.5000	0.00587385
1362.0000	0.00588133
1361.5000	0.00588532
1361.0000	0.00589167
1360.5000	0.00589793
1360.0000	0.00591627
1359.5000	0.00591996
1359.0000	0.00593074
1358.5000	0.00593426
1358.0000	0.00593983
1357.5000	0.00594891
1357.0000	0.0059573
1356.5000	0.00596186
1356.0000	0.00596581
1355.5000	0.00597107
1355.0000	0.00597906
1354.5000	0.00598263
1354.0000	0.00599495
1353.5000	0.00600071
1353.0000	0.00600811
1352.5000	0.00600806
1352.0000	0.00600773
1351.5000	0.00600766
1351.0000	0.00600866
1350.5000	0.00601177
1350.0000	0.00601726
1349.5000	0.00601993
1349.0000	0.00601983
1348.5000	0.00602125
1348.0000	0.00602596
1347.5000	0.00602956
1347.0000	0.00603274
1346.5000	0.00603853
1346.0000	0.00604767
1345.5000	0.00605158
1345.0000	0.00605742
1344.5000	0.00605957
1344.0000	0.00606846
1343.5000	0.00607325
1343.0000	0.00608402
1342.5000	0.00609232
1342.0000	0.00609971
1341.5000	0.0061076
1341.0000	0.00611492
1340.5000	0.00612307
1340.0000	0.00612812
1339.5000	0.00613246
1339.0000	0.00614066
1338.5000	0.00614765
1338.0000	0.00615479
1337.5000	0.0061602
1337.0000	0.00617111
1336.5000	0.00617439
1336.0000	0.0061782
1335.5000	0.00618329
1335.0000	0.00618595
1334.5000	0.00618844
1334.0000	0.00619337
1333.5000	0.00619894
1333.0000	0.00620715
1332.5000	0.00621355
1332.0000	0.00622023
1331.5000	0.00622601
1331.0000	0.00623218
1330.5000	0.0062379
1330.0000	0.00624739
1329.5000	0.00625606
1329.0000	0.00626474
1328.5000	0.00627305
1328.0000	0.00628174
1327.5000	0.00628917
1327.0000	0.00629715
1326.5000	0.00630047
1326.0000	0.00630796
1325.5000	0.0063151
1325.0000	0.00632245
1324.5000	0.00632784
1324.0000	0.00633254
1323.5000	0.00633962
1323.0000	0.00634598
1322.5000	0.00635259
1322.0000	0.00636077
1321.5000	0.00636776
1321.0000	0.00637489
1320.5000	0.00638228
1320.0000	0.00639209
1319.5000	0.0063982
1319.0000	0.00640465
1318.5000	0.00641276
1318.0000	0.0064217
1317.5000	0.00642729
1317.0000	0.00643103
1316.5000	0.00643902
1316.0000	0.0064461
1315.5000	0.00644942
1315.0000	0.00645495
1314.5000	0.0064617
1314.0000	0.0064683
1313.5000	0.00647363
1313.0000	0.00647836
1312.5000	0.0064844
1312.0000	0.00648914
1311.5000	0.00649345
1311.0000	0.00650275
1310.5000	0.00651333
1310.0000	0.00652246
1309.5000	0.0065264
1309.0000	0.00653752
1308.5000	0.00654317
1308.0000	0.00654725
1307.5000	0.0065521
1307.0000	0.00656027
1306.5000	0.00656671
1306.0000	0.00657597
1305.5000	0.00658258
1305.0000	0.00659363
1304.5000	0.00659854
1304.0000	0.00660143
1303.5000	0.00660619
1303.0000	0.00661157
1302.5000	0.00661589
1302.0000	0.00662065
1301.5000	0.00662791
1301.0000	0.00663731
1300.5000	0.00664222
1300.0000	0.00665064
1299.5000	0.00665794
1299.0000	0.00666429
1298.5000	0.00666699
1298.0000	0.00667305
1297.5000	0.00667808
1297.0000	0.00668677
1296.5000	0.00669348
1296.0000	0.00670401
1295.5000	0.00671313
1295.0000	0.00672179
1294.5000	0.00672698
1294.0000	0.00673546
1293.5000	0.00674016
1293.0000	0.0067427
1292.5000	0.00675035
1292.0000	0.00676069
1291.5000	0.00676744
1291.0000	0.00677611
1290.5000	0.00678471
1290.0000	0.00679357
1289.5000	0.00679965
1289.0000	0.00680384
1288.5000	0.00680896
1288.0000	0.00681756
1287.5000	0.0068238
1287.0000	0.00683238
1286.5000	0.00684093
1286.0000	0.00684769
1285.5000	0.00685512
1285.0000	0.00686313
1284.5000	0.00687189
1284.0000	0.00687826
1283.5000	0.00688622
1283.0000	0.00689697
1282.5000	0.00690348
1282.0000	0.00691091
1281.5000	0.00691661
1281.0000	0.00692441
1280.5000	0.00693217
1280.0000	0.00694011
1279.5000	0.0069477
1279.0000	0.00695515
1278.5000	0.00696128
1278.0000	0.00696553
1277.5000	0.00697268
1277.0000	0.00697914
1276.5000	0.00698617
1276.0000	0.00700048
1275.5000	0.00700944
1275.0000	0.00701888
1274.5000	0.00702378
1274.0000	0.00703284
1273.5000	0.00704086
1273.0000	0.00705084
1272.5000	0.00705881
1272.0000	0.00706558
1271.5000	0.00707448
1271.0000	0.00708261
1270.5000	0.00709301
1270.0000	0.00710168
1269.5000	0.00710684
1269.0000	0.00711495
1268.5000	0.00712369
1268.0000	0.00713552
1267.5000	0.00714215
1267.0000	0.00714906
1266.5000	0.0071543
1266.0000	0.00716221
1265.5000	0.00717115
1265.0000	0.00717987
1264.5000	0.00718851
1264.0000	0.00719468
1263.5000	0.00720143
1263.0000	0.00721027
1262.5000	0.00721548
1262.0000	0.00722049
1261.5000	0.0072284
1261.0000	0.00723528
1260.5000	0.00724425
1260.0000	0.00725367
1259.5000	0.00726092
1259.0000	0.00726827
1258.5000	0.00727543
1258.0000	0.00728093
1257.5000	0.00728848
1257.0000	0.00729872
1256.5000	0.00730524
1256.0000	0.00731218
1255.5000	0.00732054
1255.0000	0.00732899
1254.5000	0.00733333
1254.0000	0.00733939
1253.5000	0.00734748
1253.0000	0.00735508
1252.5000	0.00736117
1252.0000	0.00737152
1251.5000	0.0073819
1251.0000	0.00739276
1250.5000	0.00739772
1250.0000	0.00740795
1249.5000	0.00742067
1249.0000	0.00742828
1248.5000	0.00743447
1248.0000	0.00744705
1247.5000	0.00745456
1247.0000	0.00746484
1246.5000	0.00747281
1246.0000	0.00748276
1245.5000	0.00748967
1245.0000	0.00749664
1244.5000	0.00750289
1244.0000	0.00751461
1243.5000	0.00751997
1243.0000	0.00752535
1242.5000	0.00753443
1242.0000	0.00754902
1241.5000	0.0075573
1241.0000	0.0075664
1240.5000	0.0075763
1240.0000	0.0075847
1239.5000	0.00759114
1239.0000	0.00760138
1238.5000	0.00761109
1238.0000	0.00761879
1237.5000	0.00762553
1237.0000	0.00763559
1236.5000	0.00764269
1236.0000	0.00764921
1235.5000	0.00765492
1235.0000	0.0076625
1234.5000	0.00767058
1234.0000	0.00767884
1233.5000	0.00768778
1233.0000	0.00769885
1232.5000	0.00770596
1232.0000	0.00771185
1231.5000	0.00772105
1231.0000	0.00773276
1230.5000	0.00774095
1230.0000	0.00775391
1229.5000	0.00776309
1229.0000	0.00777481
1228.5000	0.00778462
1228.0000	0.00779426
1227.5000	0.00780047
1227.0000	0.00780755
1226.5000	0.00781475
1226.0000	0.00782689
1225.5000	0.0078364
1225.0000	0.00784574
1224.5000	0.00785172
1224.0000	0.00786322
1223.5000	0.00787022
1223.0000	0.00788107
1222.5000	0.00788725
1222.0000	0.00789905
1221.5000	0.00790632
1221.0000	0.00791842
1220.5000	0.00792812
1220.0000	0.00793949
1219.5000	0.00794605
1219.0000	0.00795459
1218.5000	0.00796343
1218.0000	0.00797525
1217.5000	0.00798429
1217.0000	0.00799416
1216.5000	0.00800227
1216.0000	0.00801345
1215.5000	0.00802032
1215.0000	0.00803403
1214.5000	0.00804387
1214.0000	0.0080556
1213.5000	0.008064
1213.0000	0.00807628
1212.5000	0.00808608
1212.0000	0.00810014
1211.5000	0.00810667
1211.0000	0.00811622
1210.5000	0.00812463
1210.0000	0.00813632
1209.5000	0.00814461
1209.0000	0.0081579
1208.5000	0.00816335
1208.0000	0.00816937
1207.5000	0.00817611
1207.0000	0.00818557
1206.5000	0.00819318
1206.0000	0.00820445
1205.5000	0.00821102
1205.0000	0.00822538
1204.5000	0.00823385
1204.0000	0.00824169
1203.5000	0.00824707
1203.0000	0.00825956
1202.5000	0.00826602
1202.0000	0.0082806
1201.5000	0.00828917
1201.0000	0.00830403
1200.5000	0.00830928
1200.0000	0.00831662
1199.5000	0.00832549
1199.0000	0.0083353
1198.5000	0.00834159
1198.0000	0.00835261
1197.5000	0.00835817
1197.0000	0.00837144
1196.5000	0.00838065
1196.0000	0.00839165
1195.5000	0.00839983
1195.0000	0.00841528
1194.5000	0.00842538
1194.0000	0.00843384
1193.5000	0.00844231
1193.0000	0.008453
1192.5000	0.00846304
1192.0000	0.00847979
1191.5000	0.00848931
1191.0000	0.00850235
1190.5000	0.00851198
1190.0000	0.00852164
1189.5000	0.00852843
1189.0000	0.00853994
1188.5000	0.00854729
1188.0000	0.00855944
1187.5000	0.00857033
1187.0000	0.00858469
1186.5000	0.00859442
1186.0000	0.00860462
1185.5000	0.00860962
1185.0000	0.00862073
1184.5000	0.00862661
1184.0000	0.00863489
1183.5000	0.00864305
1183.0000	0.00865808
1182.5000	0.00866668
1182.0000	0.00867316
1181.5000	0.00867966
1181.0000	0.0086916
1180.5000	0.00870293
1180.0000	0.00871573
1179.5000	0.00872804
1179.0000	0.0087461
1178.5000	0.00875625
1178.0000	0.00877188
1177.5000	0.00878264
1177.0000	0.00879594
1176.5000	0.00880369
1176.0000	0.00881786
1175.5000	0.00882823
1175.0000	0.00884409
1174.5000	0.00885491
1174.0000	0.00886877
1173.5000	0.00887451
1173.0000	0.00888534
1172.5000	0.00889413
1172.0000	0.00890679
1171.5000	0.00891831
1171.0000	0.00893535
1170.5000	0.00894466
1170.0000	0.00895817
1169.5000	0.0089661
1169.0000	0.0089792
1168.5000	0.00898995
1168.0000	0.00899983
1167.5000	0.00900623
1167.0000	0.00902112
1166.5000	0.00903167
1166.0000	0.00904141
1165.5000	0.00904923
1165.0000	0.00905655
1164.5000	0.00906592
1164.0000	0.00907806
1163.5000	0.00908749
1163.0000	0.00910467
1162.5000	0.00911537
1162.0000	0.00912661
1161.5000	0.00913602
1161.0000	0.00914972
1160.5000	0.00916089
1160.0000	0.00917351
1159.5000	0.00918328
1159.0000	0.00919824
1158.5000	0.00920828
1158.0000	0.00921977
1157.5000	0.00922873
1157.0000	0.009242
1156.5000	0.00925107
1156.0000	0.0092632
1155.5000	0.00927323
1155.0000	0.00929147
1154.5000	0.00930267
1154.0000	0.00931732
1153.5000	0.0093276
1153.0000	0.00934316
1152.5000	0.00935306
1152.0000	0.00936936
1151.5000	0.00937965
1151.0000	0.00939413
1150.5000	0.0094021
1150.0000	0.00941506
1149.5000	0.00942597
1149.0000	0.00943853
1148.5000	0.00944936
1148.0000	0.00946154
1147.5000	0.00947048
1147.0000	0.00948639
1146.5000	0.00949646
1146.0000	0.00951191
1145.5000	0.00952451
1145.0000	0.00953859
1144.5000	0.00954798
1144.0000	0.00956407
1143.5000	0.00957348
1143.0000	0.00958973
1142.5000	0.00960015
1142.0000	0.00961684
1141.5000	0.00962676
1141.0000	0.00963822
1140.5000	0.00964647
1140.0000	0.00965843
1139.5000	0.00966704
1139.0000	0.00968011
1138.5000	0.00969357
1138.0000	0.00971672
1137.5000	0.00972684
1137.0000	0.00974575
1136.5000	0.00975592
1136.0000	0.00976608
1135.5000	0.00977698
1135.0000	0.00979103
1134.5000	0.00980323
1134.0000	0.00981934
1133.5000	0.00983183
1133.0000	0.00985088
1132.5000	0.00986321
1132.0000	0.0098754
1131.5000	0.00988228
1131.0000	0.0098968
1130.5000	0.00990781
1130.0000	0.00992441
1129.5000	0.00993739
1129.0000	0.00995259
1128.5000	0.00996566
1128.0000	0.00997953
1127.5000	0.0099916
1127.0000	0.0100108
1126.5000	0.0100197
1126.0000	0.0100333
1125.5000	0.0100444
1125.0000	0.0100632
1124.5000	0.0100741
1124.0000	0.0100891
1123.5000	0.0101007
1123.0000	0.0101172
1122.5000	0.0101279
1122.0000	0.0101417
1121.5000	0.0101543
1121.0000	0.0101699
1120.5000	0.0101783
1120.0000	0.0101965
1119.5000	0.0102051
1119.0000	0.0102211
1118.5000	0.010232
1118.0000	0.0102477
1117.5000	0.0102578
1117.0000	0.0102744
1116.5000	0.0102874
1116.0000	0.0103077
1115.5000	0.010325
1115.0000	0.0103431
1114.5000	0.0103569
1114.0000	0.0103745
1113.5000	0.0103856
1113.0000	0.0104048
1112.5000	0.0104165
1112.0000	0.0104361
1111.5000	0.010449
1111.0000	0.0104679
1110.5000	0.01048
1110.0000	0.0104961
1109.5000	0.0105067
1109.0000	0.0105175
1108.5000	0.0105298
1108.0000	0.0105478
1107.5000	0.0105583
1107.0000	0.0105738
1106.5000	0.0105852
1106.0000	0.0106023
1105.5000	0.010614
1105.0000	0.0106312
1104.5000	0.0106414
1104.0000	0.010658
1103.5000	0.010668
1103.0000	0.0106871
1102.5000	0.0106975
1102.0000	0.0107113
1101.5000	0.0107216
1101.0000	0.0107417
1100.5000	0.0107565
1100.0000	0.0107761
1099.5000	0.0107876
1099.0000	0.0108068
1098.5000	0.0108197
1098.0000	0.0108389
1097.5000	0.0108499
1097.0000	0.010869
1096.5000	0.0108822
1096.0000	0.0109013
1095.5000	0.010917
1095.0000	0.0109367
1094.5000	0.0109497
1094.0000	0.0109658
1093.5000	0.0109776
1093.0000	0.0109963
1092.5000	0.0110086
1092.0000	0.0110275
1091.5000	0.0110394
1091.0000	0.0110622
1090.5000	0.011078
1090.0000	0.0110969
1089.5000	0.0111117
1089.0000	0.0111302
1088.5000	0.011148
1088.0000	0.0111678
1087.5000	0.0111819
1087.0000	0.0112058
1086.5000	0.0112212
1086.0000	0.0112445
1085.5000	0.0112595
1085.0000	0.0112828
1084.5000	0.0112974
1084.0000	0.0113151
1083.5000	0.011331
1083.0000	0.0113536
1082.5000	0.0113646
1082.0000	0.011379
1081.5000	0.0113934
1081.0000	0.0114122
1080.5000	0.0114228
1080.0000	0.0114361
1079.5000	0.0114461
1079.0000	0.0114662
1078.5000	0.0114744
1078.0000	0.0114956
1077.5000	0.0115081
1077.0000	0.0115238
1076.5000	0.0115351
1076.0000	0.0115553
1075.5000	0.0115694
1075.0000	0.0115895
1074.5000	0.0116049
1074.0000	0.0116275
1073.5000	0.0116412
1073.0000	0.011661
1072.5000	0.0116722
1072.0000	0.011696
1071.5000	0.0117069
1071.0000	0.0117315
1070.5000	0.0117493
1070.0000	0.0117711
1069.5000	0.0117873
1069.0000	0.0118088
1068.5000	0.0118245
1068.0000	0.0118452
1067.5000	0.0118597
1067.0000	0.0118828
1066.5000	0.0118992
1066.0000	0.0119238
1065.5000	0.0119398
1065.0000	0.0119624
1064.5000	0.0119766
1064.0000	0.0119969
1063.5000	0.0120141
1063.0000	0.012038
1062.5000	0.0120542
1062.0000	0.012073
1061.5000	0.0120889
1061.0000	0.0121142
1060.5000	0.0121304
1060.0000	0.0121496
1059.5000	0.0121646
1059.0000	0.0121842
1058.5000	0.0122
1058.0000	0.0122199
1057.5000	0.012234
1057.0000	0.0122543
1056.5000	0.0122683
1056.0000	0.0122935
1055.5000	0.0123106
1055.0000	0.0123323
1054.5000	0.0123486
1054.0000	0.0123711
1053.5000	0.0123893
1053.0000	0.012414
1052.5000	0.0124301
1052.0000	0.0124518
1051.5000	0.0124678
1051.0000	0.0124935
1050.5000	0.0125079
1050.0000	0.0125299
1049.5000	0.0125459
1049.0000	0.0125705
1048.5000	0.0125847
1048.0000	0.0126067
1047.5000	0.0126211
1047.0000	0.0126457
1046.5000	0.0126618
1046.0000	0.0126885
1045.5000	0.0127044
1045.0000	0.0127251
1044.5000	0.0127442
1044.0000	0.0127731
1043.5000	0.0127892
1043.0000	0.0128103
1042.5000	0.0128285
1042.0000	0.0128578
1041.5000	0.0128776
1041.0000	0.0129016
1040.5000	0.0129172
1040.0000	0.012944
1039.5000	0.0129586
1039.0000	0.0129846
1038.5000	0.0130046
1038.0000	0.0130277
1037.5000	0.0130417
1037.0000	0.0130677
1036.5000	0.0130864
1036.0000	0.0131092
1035.5000	0.0131254
1035.0000	0.0131508
1034.5000	0.0131718
1034.0000	0.0131958
1033.5000	0.013211
1033.0000	0.0132414
1032.5000	0.0132602
1032.0000	0.0132858
1031.5000	0.0133022
1031.0000	0.013331
1030.5000	0.0133512
1030.0000	0.0133819
1029.5000	0.0133977
1029.0000	0.0134211
1028.5000	0.0134366
1028.0000	0.0134612
1027.5000	0.0134819
1027.0000	0.0135081
1026.5000	0.0135272
1026.0000	0.0135553
1025.5000	0.0135747
1025.0000	0.0136042
1024.5000	0.0136234
1024.0000	0.0136474
1023.5000	0.0136651
1023.0000	0.0136982
1022.5000	0.013719
1022.0000	0.0137504
1021.5000	0.0137702
1021.0000	0.0138031
1020.5000	0.0138244
1020.0000	0.0138542
1019.5000	0.0138728
1019.0000	0.0138982
1018.5000	0.0139158
1018.0000	0.0139426
1017.5000	0.0139634
1017.0000	0.0139928
1016.5000	0.0140113
1016.0000	0.0140393
1015.5000	0.0140571
1015.0000	0.0140873
1014.5000	0.0141067
1014.0000	0.0141358
1013.5000	0.014155
1013.0000	0.0141875
1012.5000	0.0142128
1012.0000	0.0142497
1011.5000	0.0142739
1011.0000	0.0143067
1010.5000	0.0143258
1010.0000	0.0143571
1009.5000	0.0143791
1009.0000	0.0144101
1008.5000	0.0144298
1008.0000	0.0144599
1007.5000	0.0144824
1007.0000	0.0145164
1006.5000	0.0145376
1006.0000	0.0145656
1005.5000	0.0145841
1005.0000	0.0146131
1004.5000	0.0146341
1004.0000	0.0146711
1003.5000	0.0146922
1003.0000	0.0147249
1002.5000	0.0147485
1002.0000	0.0147808
1001.5000	0.0148043
1001.0000	0.0148372
1000.5000	0.0148603
1000.0000	0.014889
999.5000	0.014912
999.0000	0.014944
998.5000	0.0149648
998.0000	0.0149934
997.5000	0.0150125
997.0000	0.0150479
996.5000	0.0150694
996.0000	0.0151041
995.5000	0.015125
995.0000	0.0151574
994.5000	0.0151818
994.0000	0.0152148
993.5000	0.0152384
993.0000	0.0152768
992.5000	0.0153011
992.0000	0.0153395
991.5000	0.0153627
991.0000	0.0153986
990.5000	0.0154243
990.0000	0.0154566
989.5000	0.0154779
989.0000	0.0155146
988.5000	0.0155398
988.0000	0.0155719
987.5000	0.015593
987.0000	0.0156323
986.5000	0.0156561
986.0000	0.0156903
985.5000	0.0157142
985.0000	0.0157523
984.5000	0.015779
984.0000	0.0158109
983.5000	0.0158379
983.0000	0.0158799
982.5000	0.0159042
982.0000	0.0159367
981.5000	0.015961
981.0000	0.0160031
980.5000	0.0160254
980.0000	0.0160635
979.5000	0.0160896
979.0000	0.0161257
978.5000	0.0161503
978.0000	0.0161876
977.5000	0.0162141
977.0000	0.0162568
976.5000	0.0162817
976.0000	0.0163222
975.5000	0.0163508
975.0000	0.0163923
974.5000	0.0164196
974.0000	0.0164603
973.5000	0.0164857
973.0000	0.0165242
972.5000	0.0165558
972.0000	0.0165979
971.5000	0.0166221
971.0000	0.0166602
970.5000	0.0166888
970.0000	0.0167269
969.5000	0.0167511
969.0000	0.0167932
968.5000	0.0168235
968.0000	0.0168639
967.5000	0.016894
967.0000	0.0169333
966.5000	0.0169647
966.0000	0.0170044
965.5000	0.0170317
965.0000	0.0170771
964.5000	0.0171097
964.0000	0.017149
963.5000	0.0171767
963.0000	0.017225
962.5000	0.0172558
962.0000	0.0172961
961.5000	0.0173251
961.0000	0.0173728
960.5000	0.0174072
960.0000	0.0174517
959.5000	0.0174793
959.0000	0.017527
958.5000	0.017561
958.0000	0.0176038
957.5000	0.0176377
957.0000	0.0176881
956.5000	0.0177225
956.0000	0.0177671
955.5000	0.0177963
955.0000	0.0178429
954.5000	0.0178721
954.0000	0.0179165
953.5000	0.0179483
953.0000	0.0180014
952.5000	0.0180354
952.0000	0.0180859
951.5000	0.0181213
951.0000	0.0181705
950.5000	0.0182064
950.0000	0.0182482
949.5000	0.018282
949.0000	0.0183381
948.5000	0.0183737
948.0000	0.0184259
947.5000	0.0184605
947.0000	0.0185162
946.5000	0.0185539
946.0000	0.0185995
945.5000	0.0186357
945.0000	0.0186866
944.5000	0.0187246
944.0000	0.0187755
943.5000	0.0188135
943.0000	0.0188636
942.5000	0.0188983
942.0000	0.0189526
941.5000	0.018989
941.0000	0.0190445
940.5000	0.0190787
940.0000	0.019132
939.5000	0.0191757
939.0000	0.0192328
938.5000	0.0192729
938.0000	0.0193271
937.5000	0.0193647
937.0000	0.0194278
936.5000	0.0194727
936.0000	0.0195377
935.5000	0.0195761
935.0000	0.0196359
934.5000	0.0196763
934.0000	0.0197317
933.5000	0.0197739
933.0000	0.0198314
932.5000	0.0198746
932.0000	0.0199312
931.5000	0.0199774
931.0000	0.020044
930.5000	0.0200864
930.0000	0.0201458
929.5000	0.0201851
929.0000	0.0202513
928.5000	0.0202949
928.0000	0.020359
927.5000	0.0204058
927.0000	0.020475
926.5000	0.0205187
926.0000	0.0205819
925.5000	0.0206248
925.0000	0.0206923
924.5000	0.0207383
924.0000	0.0208036
923.5000	0.0208483
923.0000	0.0209179
922.5000	0.0209643
922.0000	0.0210345
921.5000	0.0210817
921.0000	0.0211543
920.5000	0.0212048
920.0000	0.0212745
919.5000	0.0213286
919.0000	0.0213987
918.5000	0.0214477
918.0000	0.0215146
917.5000	0.0215658
917.0000	0.0216453
916.5000	0.0216995
916.0000	0.0217696
915.5000	0.021825
915.0000	0.0219088
914.5000	0.0219601
914.0000	0.0220367
913.5000	0.0220879
913.0000	0.0221644
912.5000	0.0222265
912.0000	0.0223093
911.5000	0.0223689
911.0000	0.0224575
910.5000	0.0225155
910.0000	0.0226006
909.5000	0.0226618
909.0000	0.0227453
908.5000	0.0228041
908.0000	0.0228894
907.5000	0.0229529
907.0000	0.0230475
906.5000	0.0231086
906.0000	0.023187
905.5000	0.0232484
905.0000	0.0233432
904.5000	0.0234058
904.0000	0.0234926
903.5000	0.0235546
903.0000	0.0236483
902.5000	0.0237135
902.0000	0.0238092
901.5000	0.0238787
901.0000	0.0239794
900.5000	0.0240466
900.0000	0.0241486
899.5000	0.02422
899.0000	0.0243207
898.5000	0.0243907
898.0000	0.0244978
897.5000	0.0245682
897.0000	0.0246745
896.5000	0.0247542
896.0000	0.0248596
895.5000	0.0249302
895.0000	0.0250398
894.5000	0.0251128
894.0000	0.025227
893.5000	0.0252958
893.0000	0.025415
892.5000	0.0255027
892.0000	0.0256204
891.5000	0.0256987
891.0000	0.0258259
890.5000	0.02591
890.0000	0.0260273
889.5000	0.0261154
889.0000	0.0262515
888.5000	0.0263437
888.0000	0.0264777
887.5000	0.0265684
887.0000	0.0267135
886.5000	0.0268013
886.0000	0.0269334
885.5000	0.0270297
885.0000	0.0271777
884.5000	0.0272716
884.0000	0.0274131
883.5000	0.0275141
883.0000	0.0276559
882.5000	0.0277557
882.0000	0.027897
881.5000	0.0279947
881.0000	0.0281586
880.5000	0.0282698
880.0000	0.028428
879.5000	0.0285401
879.0000	0.0287041
878.5000	0.0288184
878.0000	0.0289897
877.5000	0.0291049
877.0000	0.0292878
876.5000	0.0294087
876.0000	0.0295958
875.5000	0.029717
875.0000	0.0298987
874.5000	0.0300178
874.0000	0.030193
873.5000	0.0303228
873.0000	0.0305147
872.5000	0.030646
872.0000	0.0308361
871.5000	0.0309797
871.0000	0.0311857
870.5000	0.0313248
870.0000	0.0315368
869.5000	0.0316786
869.0000	0.0318977
868.5000	0.0320553
868.0000	0.0322807
867.5000	0.0324388
867.0000	0.0326743
866.5000	0.0328317
866.0000	0.0330732
865.5000	0.033235
865.0000	0.0334819
864.5000	0.0336563
864.0000	0.0339116
863.5000	0.0340821
863.0000	0.034363
862.5000	0.0345485
862.0000	0.034831
861.5000	0.0350216
861.0000	0.0353163
860.5000	0.0355137
860.0000	0.0358093
859.5000	0.0360098
859.0000	0.0363316
858.5000	0.0365435
858.0000	0.036857
857.5000	0.0370729
857.0000	0.037402
856.5000	0.037625
856.0000	0.0379579
855.5000	0.0381792
855.0000	0.0385284
854.5000	0.0387572
854.0000	0.0391083
853.5000	0.0393504
853.0000	0.0397222
852.5000	0.0399668
852.0000	0.0403436
851.5000	0.0406061
851.0000	0.0410044
850.5000	0.0412727
850.0000	0.0412839
849.5000	0.041579
849.0000	0.0419532
848.5000	0.0422192
848.0000	0.042637
847.5000	0.0429315
847.0000	0.0433826
846.5000	0.0436823
846.0000	0.0441634
845.5000	0.0444421
845.0000	0.0449547
844.5000	0.0452702
844.0000	0.0457788
843.5000	0.0460765
843.0000	0.0465391
842.5000	0.0468954
842.0000	0.0474334
841.5000	0.0477447
841.0000	0.0482609
840.5000	0.0486008
840.0000	0.0491144
839.5000	0.0494742
839.0000	0.0500331
838.5000	0.0503766
838.0000	0.0509698
837.5000	0.0513431
837.0000	0.0519574
836.5000	0.0523495
836.0000	0.0529378
835.5000	0.0533151
835.0000	0.0539428
834.5000	0.0543544
834.0000	0.0549632
833.5000	0.0554046
833.0000	0.0560523
832.5000	0.0564802
832.0000	0.0571275
831.5000	0.0575665
831.0000	0.0582288
830.5000	0.0586479
830.0000	0.0593198
829.5000	0.0597813
829.0000	0.0604691
828.5000	0.0609371
828.0000	0.0616336
827.5000	0.0621263
827.0000	0.062844
826.5000	0.0633203
826.0000	0.0640385
825.5000	0.064529
825.0000	0.06526
824.5000	0.0657907
824.0000	0.0664956
823.5000	0.0670083
823.0000	0.0677342
822.5000	0.0682067
822.0000	0.0690013
821.5000	0.0695073
821.0000	0.070248
820.5000	0.0707777
820.0000	0.071558
819.5000	0.0720775
819.0000	0.0728795
818.5000	0.073393
818.0000	0.0741942
817.5000	0.0747468
817.0000	0.0755558
816.5000	0.0761365
816.0000	0.0769882
815.5000	0.0775229
815.0000	0.0783593
814.5000	0.0788889
814.0000	0.0797455
813.5000	0.0803016
813.0000	0.0811708
812.5000	0.0817361
812.0000	0.0826158
811.5000	0.0831835
811.0000	0.0840172
810.5000	0.0845825
810.0000	0.0854493
809.5000	0.086058
809.0000	0.0869691
808.5000	0.0875645
808.0000	0.0884475
807.5000	0.0890184
807.0000	0.0898957
806.5000	0.0904561
806.0000	0.0913622
805.5000	0.091946
805.0000	0.09284
804.5000	0.0934145
804.0000	0.0942813
803.5000	0.0948766
803.0000	0.0957257
802.5000	0.0963199
802.0000	0.0972284
801.5000	0.097842
801.0000	0.0987291
800.5000	0.0993412
800.0000	0.100246
799.5000	0.100837
799.0000	0.101723
798.5000	0.102348
798.0000	0.103262
797.5000	0.103873
797.0000	0.104763
796.5000	0.105399
796.0000	0.106307
795.5000	0.10688
795.0000	0.107802
794.5000	0.108445
794.0000	0.109346
793.5000	0.109966
793.0000	0.110874
792.5000	0.111497
792.0000	0.112396
791.5000	0.112985
791.0000	0.113921
790.5000	0.114507
790.0000	0.115394
789.5000	0.115997
789.0000	0.116901
788.5000	0.117512
788.0000	0.118452
787.5000	0.119045
787.0000	0.119926
786.5000	0.120543
786.0000	0.121425
785.5000	0.122021
785.0000	0.122905
784.5000	0.123531
784.0000	0.124455
783.5000	0.125046
783.0000	0.125928
782.5000	0.126528
782.0000	0.12738
781.5000	0.127952
781.0000	0.128842
780.5000	0.129452
780.0000	0.130295
779.5000	0.130893
779.0000	0.131797
778.5000	0.132376
778.0000	0.133234
777.5000	0.133839
777.0000	0.134723
776.5000	0.135303
776.0000	0.136186
775.5000	0.136742
775.0000	0.137614
774.5000	0.138189
774.0000	0.139027
773.5000	0.139629
773.0000	0.140458
772.5000	0.141015
772.0000	0.141862
771.5000	0.142407
771.0000	0.1432
770.5000	0.143751
770.0000	0.144573
769.5000	0.145123
769.0000	0.145954
768.5000	0.146492
768.0000	0.147325
767.5000	0.147874
767.0000	0.148686
766.5000	0.149256
766.0000	0.150093
765.5000	0.150633
765.0000	0.151463
764.5000	0.151994
764.0000	0.152799
763.5000	0.153378
763.0000	0.154183
762.5000	0.154724
762.0000	0.155552
761.5000	0.156094
761.0000	0.156887
760.5000	0.157436
760.0000	0.158215
759.5000	0.158761
759.0000	0.159551
758.5000	0.160106
758.0000	0.160921
757.5000	0.161451
757.0000	0.162249
756.5000	0.162778
756.0000	0.16359
755.5000	0.164102
755.0000	0.164886
754.5000	0.165426
754.0000	0.166219
753.5000	0.166763
753.0000	0.167573
752.5000	0.168076
752.0000	0.168895
751.5000	0.169411
751.0000	0.170191
750.5000	0.170734
750.0000	0.171501
749.5000	0.172018
749.0000	0.172805
748.5000	0.173333
748.0000	0.174102
747.5000	0.174617
747.0000	0.175349
746.5000	0.175828
746.0000	0.176613
745.5000	0.177095
745.0000	0.177865
744.5000	0.178344
744.0000	0.179057
743.5000	0.179551
743.0000	0.180277
742.5000	0.180753
742.0000	0.181472
741.5000	0.181966
741.0000	0.182672
740.5000	0.183161
740.0000	0.183995
739.5000	0.184438
739.0000	0.18512
738.5000	0.185574
738.0000	0.186264
737.5000	0.186738
737.0000	0.18743
736.5000	0.187888
736.0000	0.188571
735.5000	0.188997
735.0000	0.189613
734.5000	0.190022
734.0000	0.190662
733.5000	0.191079
733.0000	0.191757
732.5000	0.192205
732.0000	0.192843
731.5000	0.193268
731.0000	0.193893
730.5000	0.194304
730.0000	0.194905
729.5000	0.195296
729.0000	0.195904
728.5000	0.196327
728.0000	0.196896
727.5000	0.197311
727.0000	0.197852
726.5000	0.198213
726.0000	0.198758
725.5000	0.199102
725.0000	0.199601
724.5000	0.199925
724.0000	0.200393
723.5000	0.200731
723.0000	0.201216
722.5000	0.201521
722.0000	0.201985
721.5000	0.202287
721.0000	0.202693
720.5000	0.202971
720.0000	0.203373
719.5000	0.203637
719.0000	0.204044
718.5000	0.204311
718.0000	0.204716
717.5000	0.204952
717.0000	0.205321
716.5000	0.205536
716.0000	0.20588
715.5000	0.206082
715.0000	0.20638
714.5000	0.206583
714.0000	0.206898
713.5000	0.207069
713.0000	0.20732
712.5000	0.207489
712.0000	0.207691
711.5000	0.207825
711.0000	0.208022
710.5000	0.208146
710.0000	0.208332
709.5000	0.208416
709.0000	0.208592
708.5000	0.208701
708.0000	0.208835
707.5000	0.208878
707.0000	0.209003
706.5000	0.209044
706.0000	0.209127
705.5000	0.209172
705.0000	0.209225
704.5000	0.209242
704.0000	0.209278
703.5000	0.209294
703.0000	0.209313
702.5000	0.209298
702.0000	0.209257
701.5000	0.20923
701.0000	0.209218
700.5000	0.209177
700.0000	0.209128
699.5000	0.209085
699.0000	0.209023
698.5000	0.208989
698.0000	0.208908
697.5000	0.208842
697.0000	0.208712
696.5000	0.208622
696.0000	0.208512
695.5000	0.208442
695.0000	0.208322
694.5000	0.208199
694.0000	0.208055
693.5000	0.207949
693.0000	0.207783
692.5000	0.207659
692.0000	0.207482
691.5000	0.207339
691.0000	0.207129
690.5000	0.206984
690.0000	0.206735
689.5000	0.206576
689.0000	0.206269
688.5000	0.206049
688.0000	0.205699
687.5000	0.205453
687.0000	0.204985
686.5000	0.204668
686.0000	0.204106
685.5000	0.203677
685.0000	0.20301
684.5000	0.202542
684.0000	0.201792
683.5000	0.20127
683.0000	0.200454
682.5000	0.199888
682.0000	0.19907
681.5000	0.198547
681.0000	0.197802
680.5000	0.197345
680.0000	0.196679
679.5000	0.196265
679.0000	0.195718
678.5000	0.19536
678.0000	0.194829
677.5000	0.1945
677.0000	0.194032
676.5000	0.193727
676.0000	0.19331
675.5000	0.192998
675.0000	0.192503
674.5000	0.192182
674.0000	0.191672
673.5000	0.191353
673.0000	0.190846
672.5000	0.190494
672.0000	0.189987
671.5000	0.189627
671.0000	0.189113
670.5000	0.18876
670.0000	0.188226
669.5000	0.18787
669.0000	0.187323
668.5000	0.186977
668.0000	0.186443
667.5000	0.186081
667.0000	0.185517
666.5000	0.185141
666.0000	0.184589
665.5000	0.184203
665.0000	0.183657
664.5000	0.183275
664.0000	0.18272
663.5000	0.182331
663.0000	0.181783
662.5000	0.181393
662.0000	0.180809
661.5000	0.180436
661.0000	0.179849
660.5000	0.179471
660.0000	0.178888
659.5000	0.178498
659.0000	0.177928
658.5000	0.177527
658.0000	0.176919
657.5000	0.176509
657.0000	0.175891
656.5000	0.175472
656.0000	0.174861
655.5000	0.174458
655.0000	0.17385
654.5000	0.173421
654.0000	0.1728
653.5000	0.172388
653.0000	0.17174
652.5000	0.171301
652.0000	0.170642
651.5000	0.170216
651.0000	0.169568
650.5000	0.16916
650.0000	0.168521
649.5000	0.168081
649.0000	0.167416
648.5000	0.166965
648.0000	0.166315
647.5000	0.165862
647.0000	0.165196
646.5000	0.164766
646.0000	0.164093
645.5000	0.163666
645.0000	0.162976
644.5000	0.162515
644.0000	0.161801
643.5000	0.161337
643.0000	0.160649
642.5000	0.16018
642.0000	0.159469
641.5000	0.159022
641.0000	0.158317
640.5000	0.157838
640.0000	0.157104
639.5000	0.156624
639.0000	0.155894
638.5000	0.155414
638.0000	0.154684
637.5000	0.154204
637.0000	0.153454
636.5000	0.152961
636.0000	0.152247
635.5000	0.151756
635.0000	0.150998
634.5000	0.150495
634.0000	0.149747
633.5000	0.149243
633.0000	0.148509
632.5000	0.148015
632.0000	0.147263
631.5000	0.146752
631.0000	0.145979
630.5000	0.145488
630.0000	0.144727
629.5000	0.1442
629.0000	0.143433
628.5000	0.142913
628.0000	0.142145
627.5000	0.141629
627.0000	0.140847
626.5000	0.14031
626.0000	0.139541
625.5000	0.139032
625.0000	0.138273
624.5000	0.137757
624.0000	0.136956
623.5000	0.136435
623.0000	0.135677
622.5000	0.135146
622.0000	0.134369
621.5000	0.13385
621.0000	0.133069
620.5000	0.13255
620.0000	0.131816
619.5000	0.131303
619.0000	0.130533
618.5000	0.129994
618.0000	0.129228
617.5000	0.128729
617.0000	0.127985
616.5000	0.127468
616.0000	0.126695
615.5000	0.126197
615.0000	0.12543
614.5000	0.124916
614.0000	0.124162
613.5000	0.12365
613.0000	0.122898
612.5000	0.122406
612.0000	0.121671
611.5000	0.121165
611.0000	0.120424
610.5000	0.119933
610.0000	0.119166
609.5000	0.11868
609.0000	0.117906
608.5000	0.117423
608.0000	0.116704
607.5000	0.11621
607.0000	0.115479
606.5000	0.114996
606.0000	0.11427
605.5000	0.113792
605.0000	0.113068
604.5000	0.112578
604.0000	0.111858
603.5000	0.111385
603.0000	0.110687
602.5000	0.110228
602.0000	0.109518
601.5000	0.109042
601.0000	0.108345
600.5000	0.107879
600.0000	0.107172
599.5000	0.106716
599.0000	0.106034
598.5000	0.105575
598.0000	0.104884
597.5000	0.104434
597.0000	0.10375
596.5000	0.1033
596.0000	0.102618
595.5000	0.102189
595.0000	0.101526
594.5000	0.101079
594.0000	0.100409
593.5000	0.0999676
593.0000	0.0993222
592.5000	0.0988785
592.0000	0.0982244
591.5000	0.0977899
591.0000	0.0971436
590.5000	0.0967164
590.0000	0.0960869
589.5000	0.0956688
589.0000	0.0950203
588.5000	0.0945979
588.0000	0.0939633
587.5000	0.0935482
587.0000	0.0929361
586.5000	0.0925243
586.0000	0.0919029
585.5000	0.0915076
585.0000	0.0908972
584.5000	0.090496
584.0000	0.0898668
583.5000	0.0894518
583.0000	0.0888193
582.5000	0.0883916
582.0000	0.0877975
581.5000	0.0874095
581.0000	0.0868008
580.5000	0.0863833
580.0000	0.0857744
579.5000	0.0853823
579.0000	0.0847767
578.5000	0.08438
578.0000	0.0838089
577.5000	0.0834226
577.0000	0.0828308
576.5000	0.0824416
576.0000	0.081877
575.5000	0.0814863
575.0000	0.0809078
574.5000	0.0805197
574.0000	0.079968
573.5000	0.0795768
573.0000	0.0790033
572.5000	0.0786397
572.0000	0.078066
571.5000	0.0776844
571.0000	0.077138
570.5000	0.0767811
570.0000	0.0762151
569.5000	0.0758624
569.0000	0.0753218
568.5000	0.0749462
568.0000	0.0744071
567.5000	0.074039
567.0000	0.0735113
566.5000	0.0731554
566.0000	0.0726443
565.5000	0.0722834
565.0000	0.0717363
564.5000	0.0713657
564.0000	0.070841
563.5000	0.0705
563.0000	0.0699658
562.5000	0.0696104
562.0000	0.0690979
561.5000	0.0687624
561.0000	0.0682567
560.5000	0.0679182
560.0000	0.0674062
559.5000	0.0670527
559.0000	0.0665647
558.5000	0.0662426
558.0000	0.0657719
557.5000	0.0654428
557.0000	0.0649591
556.5000	0.0646402
556.0000	0.0641682
555.5000	0.0638618
555.0000	0.0633901
554.5000	0.0630763
554.0000	0.0626189
553.5000	0.0623122
553.0000	0.0618273
552.5000	0.0615222
552.0000	0.0610534
551.5000	0.0607309
551.0000	0.0602854
550.5000	0.059992
550.0000	0.0595398
549.5000	0.0592494
549.0000	0.0587837
548.5000	0.0584696
548.0000	0.0580356
547.5000	0.0577326
547.0000	0.0573233
546.5000	0.0570508
546.0000	0.0566193
545.5000	0.0563443
545.0000	0.0559178
544.5000	0.0556328
544.0000	0.0552166
543.5000	0.0549439
543.0000	0.0545086
542.5000	0.054253
542.0000	0.0538435
541.5000	0.0535745
541.0000	0.053167
540.5000	0.0528855
540.0000	0.0524886
539.5000	0.0522291
539.0000	0.0518279
538.5000	0.0515752
538.0000	0.0511744
537.5000	0.0509293
537.0000	0.0505527
536.5000	0.0503054
536.0000	0.0499075
535.5000	0.0496608
535.0000	0.0492841
534.5000	0.0490449
534.0000	0.0486974
533.5000	0.0484458
533.0000	0.0480838
532.5000	0.0478516
532.0000	0.0475042
531.5000	0.0472799
531.0000	0.046923
530.5000	0.046678
530.0000	0.0463543
529.5000	0.0461458
529.0000	0.0458085
528.5000	0.0455793
528.0000	0.0452316
527.5000	0.0450097
527.0000	0.0446981
526.5000	0.044466
526.0000	0.044123
525.5000	0.043907
525.0000	0.0435852
524.5000	0.0433798
524.0000	0.0430884
523.5000	0.0428827
523.0000	0.0425609
522.5000	0.0423468
522.0000	0.0420638
521.5000	0.041852
521.0000	0.041568
520.5000	0.0413684
520.0000	0.0411079
519.5000	0.0409249
519.0000	0.0406341
518.5000	0.0404423
518.0000	0.0401571
517.5000	0.039985
517.0000	0.039708
516.5000	0.0395379
516.0000	0.039287
515.5000	0.0391103
515.0000	0.0388758
514.5000	0.0387206
514.0000	0.0384623
513.5000	0.0382875
513.0000	0.0380417
512.5000	0.0379006
512.0000	0.0376752
511.5000	0.0375244
511.0000	0.0372913
510.5000	0.0371315
510.0000	0.0369547
509.5000	0.0368115
509.0000	0.0365876
508.5000	0.0364431
508.0000	0.0362407
507.5000	0.0361036
507.0000	0.0358852
506.5000	0.0357728
506.0000	0.0355912
505.5000	0.0354626
505.0000	0.0352722
504.5000	0.0351527
504.0000	0.0349822
503.5000	0.0348904
503.0000	0.0347176
502.5000	0.0346168
502.0000	0.034427
501.5000	0.0343303
501.0000	0.034191
500.5000	0.0341041
500.0000	0.0339635
499.5000	0.0338721
499.0000	0.0337517
498.5000	0.033684
498.0000	0.0335602
497.5000	0.0334749
497.0000	0.0333566
496.5000	0.0332792
496.0000	0.0331999
495.5000	0.0331695
495.0000	0.0330747
494.5000	0.0330136
494.0000	0.0329203
493.5000	0.032875
493.0000	0.0328157
492.5000	0.0327756
492.0000	0.0327031
491.5000	0.0326812
491.0000	0.0326223
490.5000	0.0326205
490.0000	0.0325795
489.5000	0.0325644
489.0000	0.03255
488.5000	0.0325419
488.0000	0.0325509
487.5000	0.0325523
487.0000	0.0325449
486.5000	0.0325384
486.0000	0.0325487
485.5000	0.032567
485.0000	0.0326011
484.5000	0.0326261
484.0000	0.0326348
483.5000	0.0326625
483.0000	0.0327078
482.5000	0.0327392
482.0000	0.032774
481.5000	0.0327873
481.0000	0.0328548
480.5000	0.0328961
480.0000	0.0329467
479.5000	0.0329965
479.0000	0.0330731
478.5000	0.0331328
478.0000	0.0332317
477.5000	0.0333074
477.0000	0.0334169
476.5000	0.033473
476.0000	0.033576
475.5000	0.0336666
475.0000	0.0337971
474.5000	0.0338832
474.0000	0.0340225
473.5000	0.0341355
473.0000	0.034277
472.5000	0.0343774
472.0000	0.0345307
471.5000	0.0346436
471.0000	0.0348049
470.5000	0.0349315
470.0000	0.0351263
469.5000	0.0352608
469.0000	0.0354508
468.5000	0.035574
468.0000	0.0357866
467.5000	0.0359386
467.0000	0.0361596
466.5000	0.0363283
466.0000	0.0365741
465.5000	0.036741
465.0000	0.0369996
464.5000	0.037183
464.0000	0.0374724
463.5000	0.0376366
463.0000	0.0379228
462.5000	0.0381372
462.0000	0.038453
461.5000	0.0386835
461.0000	0.0390163
460.5000	0.0392404
460.0000	0.0395679
459.5000	0.0398263
459.0000	0.0402381
458.5000	0.0404973
458.0000	0.0409098
457.5000	0.0412034
457.0000	0.0416634
456.5000	0.0419568
456.0000	0.0424253
455.5000	0.0427904
455.0000	0.0433135
454.5000	0.0436923
454.0000	0.0442884
453.5000	0.0446855
453.0000	0.0453107
452.5000	0.0457408
452.0000	0.0463929
451.5000	0.0468541
451.0000	0.0475782
450.5000	0.0480759
450.0000	0.0489255
449.5000	0.0494527
449.0000	0.0503153
448.5000	0.0509136
448.0000	0.0518407
447.5000	0.0524649
447.0000	0.053436
446.5000	0.0541367
446.0000	0.055219
445.5000	0.0559487
445.0000	0.0571099
444.5000	0.0579033
444.0000	0.0591087
443.5000	0.0599611
443.0000	0.0612954
442.5000	0.0622025
442.0000	0.063595
441.5000	0.0645601
441.0000	0.0660671
440.5000	0.0671123
440.0000	0.0687061
439.5000	0.0697829
439.0000	0.0714608
438.5000	0.0726083
438.0000	0.0743835
437.5000	0.0756268
437.0000	0.0775421
436.5000	0.0788487
436.0000	0.0808534
435.5000	0.082268
435.0000	0.0843991
434.5000	0.0858639
434.0000	0.0880973
433.5000	0.089653
433.0000	0.0920368
432.5000	0.093685
432.0000	0.0962135
431.5000	0.0979591
431.0000	0.100605
430.5000	0.102396
430.0000	0.105167
429.5000	0.107078
429.0000	0.109957
428.5000	0.111945
428.0000	0.114947
427.5000	0.116945
427.0000	0.120039
426.5000	0.122121
426.0000	0.125275
425.5000	0.127415
425.0000	0.130649
424.5000	0.132822
424.0000	0.136107
423.5000	0.138338
423.0000	0.141723
422.5000	0.143961
422.0000	0.147333
421.5000	0.149592
421.0000	0.15301
420.5000	0.155281
420.0000	0.158694
419.5000	0.160963
419.0000	0.164344
418.5000	0.166625
418.0000	0.16999
417.5000	0.172272
417.0000	0.17562
416.5000	0.17783
416.0000	0.181143
415.5000	0.183328
415.0000	0.186608
414.5000	0.188746
414.0000	0.19192
413.5000	0.194008
413.0000	0.197092
412.5000	0.199098
412.0000	0.202044
411.5000	0.203954
411.0000	0.206716
410.5000	0.20855
410.0000	0.211243
409.5000	0.212941
409.0000	0.215442
408.5000	0.217114
408.0000	0.219406
407.5000	0.220904
407.0000	0.223043
406.5000	0.224414
406.0000	0.226386
405.5000	0.22765
405.0000	0.229455
404.5000	0.230613
404.0000	0.232219
403.5000	0.233262
403.0000	0.234703
402.5000	0.235596
402.0000	0.236787
401.5000	0.237512
401.0000	0.238473
400.5000	0.239156
400.0000	0.240065
399.5000	0.240594
399.0000	0.241323
398.5000	0.241743
398.0000	0.242325
397.5000	0.242663
397.0000	0.243084
396.5000	0.243303
396.0000	0.243577
395.5000	0.243745
395.0000	0.243987
394.5000	0.244114
394.0000	0.244094
393.5000	0.244058
393.0000	0.24394
392.5000	0.24384
392.0000	0.243615
391.5000	0.243415
391.0000	0.243124
390.5000	0.242877
390.0000	0.242488
389.5000	0.242171
389.0000	0.241678
388.5000	0.241344
388.0000	0.240839
387.5000	0.240465
387.0000	0.239913
386.5000	0.23955
386.0000	0.238915
385.5000	0.238492
385.0000	0.237856
384.5000	0.237381
384.0000	0.236687
383.5000	0.236208
383.0000	0.235489
382.5000	0.235006
382.0000	0.234303
381.5000	0.233795
381.0000	0.233001
380.5000	0.23243
380.0000	0.231589
379.5000	0.231042
379.0000	0.230155
378.5000	0.229593
378.0000	0.228655
377.5000	0.228023
377.0000	0.227125
376.5000	0.226478
376.0000	0.22552
375.5000	0.224844
375.0000	0.223813
374.5000	0.223094
374.0000	0.222069
373.5000	0.221347
373.0000	0.220232
372.5000	0.219498
372.0000	0.218369
371.5000	0.217609
371.0000	0.216405
370.5000	0.215544
370.0000	0.214119
369.5000	0.213226
369.0000	0.211906
368.5000	0.211042
368.0000	0.209598
367.5000	0.208687
367.0000	0.207301
366.5000	0.206393
366.0000	0.204967
365.5000	0.203987
365.0000	0.202602
364.5000	0.201634
364.0000	0.200149
363.5000	0.199128
363.0000	0.197636
362.5000	0.196661
362.0000	0.195118
361.5000	0.194135
361.0000	0.192595
360.5000	0.19154
360.0000	0.190028
359.5000	0.189021
359.0000	0.187438
358.5000	0.186411
358.0000	0.184818
357.5000	0.18377
357.0000	0.182267
356.5000	0.181233
356.0000	0.179652
355.5000	0.178638
355.0000	0.177127
354.5000	0.176176
354.0000	0.174617
353.5000	0.173588
353.0000	0.172102
352.5000	0.17115
352.0000	0.169743
351.5000	0.168796
351.0000	0.167421
350.5000	0.166444
350.0000	0.165029
349.5000	0.164158
349.0000	0.162867
348.5000	0.161946
348.0000	0.160581
347.5000	0.159715
347.0000	0.15847
346.5000	0.157607
346.0000	0.156371
345.5000	0.155527
345.0000	0.154273
344.5000	0.153444
344.0000	0.152272
343.5000	0.151499
343.0000	0.150362
342.5000	0.149629
342.0000	0.148552
341.5000	0.147807
341.0000	0.146773
340.5000	0.146093
340.0000	0.145214
339.5000	0.144569
339.0000	0.143475
338.5000	0.142854
338.0000	0.141836
337.5000	0.141242
337.0000	0.140209
336.5000	0.139549
336.0000	0.138585
335.5000	0.137992
335.0000	0.137109
334.5000	0.13655
334.0000	0.135728
333.5000	0.135168
333.0000	0.134347
332.5000	0.133847
332.0000	0.133017
331.5000	0.132502
331.0000	0.131689
330.5000	0.131158
330.0000	0.13042
329.5000	0.129897
329.0000	0.129078
328.5000	0.128489
328.0000	0.127659
327.5000	0.127172
327.0000	0.126362
326.5000	0.125855
326.0000	0.125011
325.5000	0.124482
325.0000	0.123715
324.5000	0.1231
324.0000	0.122316
323.5000	0.121744
323.0000	0.12091
322.5000	0.120379
322.0000	0.119559
321.5000	0.119015
321.0000	0.118083
320.5000	0.117329
320.0000	0.116435
319.5000	0.115816
319.0000	0.114978
318.5000	0.114363
318.0000	0.113464
317.5000	0.11282
317.0000	0.111877
316.5000	0.111248
316.0000	0.11027
315.5000	0.10953
315.0000	0.108609
314.5000	0.107997
314.0000	0.107163
313.5000	0.106497
313.0000	0.105532
312.5000	0.10483
312.0000	0.103942
311.5000	0.103309
311.0000	0.102387
310.5000	0.101803
310.0000	0.100755
309.5000	0.10018
309.0000	0.0994897
308.5000	0.0989064
308.0000	0.0981639
307.5000	0.0975641
307.0000	0.0967361
306.5000	0.0963208
306.0000	0.0954414
305.5000	0.0948327
305.0000	0.0941727
304.5000	0.093583
304.0000	0.092825
303.5000	0.0925576
303.0000	0.0918106
302.5000	0.0914116
302.0000	0.0907604
301.5000	0.090638
301.0000	0.0903988
300.5000	0.0901804
300.0000	0.0895762
299.5000	0.0892261
299.0000	0.0888887
298.5000	0.0885014
298.0000	0.0885596
297.5000	0.0881594
297.0000	0.0879034
296.5000	0.0879579
296.0000	0.0888555
295.5000	0.0901072
295.0000	0.0900623
294.5000	0.0900144
294.0000	0.089813
293.5000	0.0896
293.0000	0.0909065
292.5000	0.0915333
292.0000	0.0922103
291.5000	0.0939096
291.0000	0.0944306
290.5000	0.0948586
290.0000	0.0950595
289.5000	0.0952993
289.0000	0.0941225
288.5000	0.0950268
288.0000	0.0956409
287.5000	0.0977769
287.0000	0.098294
286.5000	0.100139
286.0000	0.102461
285.5000	0.101582
285.0000	0.098747
284.5000	0.100572
284.0000	0.0997047
283.5000	0.097104
283.0000	0.0997536
282.5000	0.103475
282.0000	0.101077
281.5000	0.0994244
281.0000	0.0991579
280.5000	0.0968526
280.0000	0.0935176
279.5000	0.0920845
279.0000	0.0900225
278.5000	0.089832
278.0000	0.0900697
277.5000	0.0926179
277.0000	0.0918296
276.5000	0.0916025
276.0000	0.0881434
275.5000	0.086958
275.0000	0.0898818
274.5000	0.0909051
274.0000	0.0931481
273.5000	0.0920828
273.0000	0.094288
272.5000	0.0962112
272.0000	0.0941284
271.5000	0.0919617
271.0000	0.093849
270.5000	0.095448
270.0000	0.0955741
269.5000	0.0957376
269.0000	0.0939643
268.5000	0.0939425
268.0000	0.0911075
267.5000	0.0899401
267.0000	0.0914562
266.5000	0.0927198
266.0000	0.0916809
265.5000	0.0943912
265.0000	0.097727
264.5000	0.0932473
264.0000	0.0917972
263.5000	0.0926623
263.0000	0.0942844
262.5000	0.0927436
262.0000	0.0961095
261.5000	0.09362
261.0000	0.0914781
260.5000	0.0910771
260.0000	0.0898339
259.5000	0.0857171
259.0000	0.0875762
258.5000	0.0843924
258.0000	0.0901256
257.5000	0.0881542
257.0000	0.0879599
256.5000	0.0875873
256.0000	0.0873734
255.5000	0.0867902
255.0000	0.0876666
254.5000	0.0884375
254.0000	0.0908017
253.5000	0.0861135
253.0000	0.0908965
252.5000	0.0882615
252.0000	0.0908297
251.5000	0.0902514
251.0000	0.0867032
250.5000	0.0841828
250.0000	0.083739
249.5000	0.0846801
249.0000	0.0856096
248.5000	0.0845494
248.0000	0.0844788
247.5000	0.0846284
247.0000	0.087581
246.5000	0.0861466
246.0000	0.0879944
245.5000	0.0863678
245.0000	0.0831778
244.5000	0.0832456
244.0000	0.0833318
243.5000	0.0802619
243.0000	0.0796083
242.5000	0.0760255
242.0000	0.0782484
241.5000	0.0768873
241.0000	0.0760201
240.5000	0.0732795
240.0000	0.0723977
239.5000	0.0706474
239.0000	0.0713656
238.5000	0.0723091
238.0000	0.0779661
237.5000	0.0743162
237.0000	0.0777802
236.5000	0.0793621
236.0000	0.0794506
235.5000	0.0796868
235.0000	0.0829703
234.5000	0.0854449
234.0000	0.0870064
233.5000	0.0879472
233.0000	0.0882135
232.5000	0.0900579
232.0000	0.0907653
231.5000	0.0883495
231.0000	0.0919914
230.5000	0.0930482
230.0000	0.0912131
229.5000	0.0885756
229.0000	0.0882634
228.5000	0.0853933
228.0000	0.0841642
227.5000	0.0825343
227.0000	0.0860705
226.5000	0.0827132
226.0000	0.0820186
225.5000	0.0838969
225.0000	0.0829438
224.5000	0.0823901
224.0000	0.0798617
223.5000	0.0813828
223.0000	0.0871055
222.5000	0.0878098
222.0000	0.0905496
221.5000	0.0916673
221.0000	0.0905381
220.5000	0.0885892
220.0000	0.094545
219.5000	0.0934936
219.0000	0.0885299
218.5000	0.0909667
218.0000	0.0916918
217.5000	0.0921187
217.0000	0.0894661
216.5000	0.0863222
216.0000	0.086762
215.5000	0.0841707
215.0000	0.0802924
214.5000	0.0815404
214.0000	0.0818346
213.5000	0.0811276
213.0000	0.0856359
212.5000	0.0882118
212.0000	0.0868657
211.5000	0.0900084
211.0000	0.0874452
210.5000	0.0910622
210.0000	0.0933135
209.5000	0.096227
209.0000	0.101006
208.5000	0.103684
208.0000	0.100473
207.5000	0.102574
207.0000	0.100153
206.5000	0.100032
206.0000	0.10226
205.5000	0.101031
205.0000	0.100162
204.5000	0.105916
204.0000	0.102524
203.5000	0.101368
203.0000	0.0987439
202.5000	0.0998732
202.0000	0.0970126
201.5000	0.09876
201.0000	0.0949697
200.5000	0.0936311
200.0000	0.0898373

##### Extended Information
[Comments]
Sample name	N2200
Comment	CF
User
Division
Company	ICMAB

[Detailed Information]
Creation date	21/10/25 1:29 PM

Data array type	Linear data array
Horizontal axis	Wavelength [nm]
Vertical axis	Abs
Start	1600 nm
End	200 nm
Data interval	0.5 nm
Data points	2801    

[Measurement Information]
Instrument name	V-780
Model name	V-780
Serial No.	D003961802

Accessory	FLH-741
Accessory S/N	B057261128
  Mask	
  Ref. beam	

Measurement date	21/10/25 1:29 PM

Photometric mode	Abs
Measurement range	1600 - 200 nm
Data interval	0.5 nm
UV/Vis bandwidth	1.0 nm
NIR bandwidth	2.0 nm
UV/Vis response	0.96 sec
NIR response	0.96 sec
Scan mode	Continuous
Scan speed	400 nm/min
Change source at	340 nm
Change grating at	850 nm
Light source	D2/WI
Filter exchange	Step
Correction	Baseline
No. of cycles	1

