TITLE	n2200-mesi
DATA TYPE	ULTRAVIOLET SPECTRUM
ORIGIN	JASCO
OWNER	
DATE	21/12/23
TIME	11:10:52
SPECTROMETER/DATA SYSTEM	
LOCALE	1033
RESOLUTION	
DELTAX	-0.5
XUNITS	NANOMETERS
YUNITS	ABSORBANCE
FIRSTX	 1600.0000
LASTX	  200.0000
NPOINTS	    2801
FIRSTY	     0.01668
MAXY	     1.18733
MINY	     0.01668
XYDATA
1600.0000	0.0166804
1599.5000	0.0166834
1599.0000	0.0166994
1598.5000	0.0167018
1598.0000	0.0167203
1597.5000	0.0167198
1597.0000	0.0167243
1596.5000	0.0167192
1596.0000	0.0167272
1595.5000	0.0167226
1595.0000	0.0167267
1594.5000	0.016726
1594.0000	0.0167293
1593.5000	0.0167225
1593.0000	0.0167208
1592.5000	0.0167253
1592.0000	0.016737
1591.5000	0.0167408
1591.0000	0.0167515
1590.5000	0.0167509
1590.0000	0.0167637
1589.5000	0.0167693
1589.0000	0.0167872
1588.5000	0.016794
1588.0000	0.016814
1587.5000	0.0168235
1587.0000	0.0168463
1586.5000	0.0168521
1586.0000	0.0168623
1585.5000	0.0168669
1585.0000	0.016881
1584.5000	0.0168899
1584.0000	0.0168986
1583.5000	0.0169043
1583.0000	0.0169115
1582.5000	0.0169183
1582.0000	0.0169223
1581.5000	0.0169219
1581.0000	0.016922
1580.5000	0.0169153
1580.0000	0.0169066
1579.5000	0.0169013
1579.0000	0.0168902
1578.5000	0.0168841
1578.0000	0.016873
1577.5000	0.01686
1577.0000	0.0168446
1576.5000	0.0168273
1576.0000	0.0168036
1575.5000	0.0167811
1575.0000	0.0167784
1574.5000	0.0167699
1574.0000	0.0167667
1573.5000	0.0167539
1573.0000	0.0167458
1572.5000	0.016746
1572.0000	0.0167514
1571.5000	0.0167482
1571.0000	0.0167537
1570.5000	0.0167575
1570.0000	0.0167588
1569.5000	0.0167552
1569.0000	0.0167688
1568.5000	0.0167771
1568.0000	0.0167935
1567.5000	0.0168012
1567.0000	0.0168131
1566.5000	0.0168231
1566.0000	0.0168396
1565.5000	0.0168452
1565.0000	0.0168592
1564.5000	0.0168789
1564.0000	0.0169018
1563.5000	0.0169125
1563.0000	0.0169315
1562.5000	0.0169436
1562.0000	0.0169638
1561.5000	0.016976
1561.0000	0.0169909
1560.5000	0.0170016
1560.0000	0.0170172
1559.5000	0.0170315
1559.0000	0.0170439
1558.5000	0.0170515
1558.0000	0.0170595
1557.5000	0.0170713
1557.0000	0.0170792
1556.5000	0.0170791
1556.0000	0.0170716
1555.5000	0.0170729
1555.0000	0.0170825
1554.5000	0.0170932
1554.0000	0.017095
1553.5000	0.0170909
1553.0000	0.0170833
1552.5000	0.0170801
1552.0000	0.0170822
1551.5000	0.0170779
1551.0000	0.017071
1550.5000	0.0170646
1550.0000	0.0170615
1549.5000	0.0170649
1549.0000	0.0170724
1548.5000	0.017079
1548.0000	0.0170761
1547.5000	0.017079
1547.0000	0.017087
1546.5000	0.0170987
1546.0000	0.0171016
1545.5000	0.0171062
1545.0000	0.0171045
1544.5000	0.0171132
1544.0000	0.0171169
1543.5000	0.0171179
1543.0000	0.0171218
1542.5000	0.017125
1542.0000	0.0171285
1541.5000	0.0171251
1541.0000	0.0171212
1540.5000	0.0171124
1540.0000	0.0171089
1539.5000	0.0171108
1539.0000	0.0171093
1538.5000	0.017106
1538.0000	0.0170917
1537.5000	0.0170868
1537.0000	0.0170803
1536.5000	0.0170785
1536.0000	0.0170699
1535.5000	0.0170683
1535.0000	0.0170611
1534.5000	0.0170612
1534.0000	0.017061
1533.5000	0.0170637
1533.0000	0.0170658
1532.5000	0.0170752
1532.0000	0.0170804
1531.5000	0.0170867
1531.0000	0.017091
1530.5000	0.0171032
1530.0000	0.0171032
1529.5000	0.0171065
1529.0000	0.0171109
1528.5000	0.0171278
1528.0000	0.0171506
1527.5000	0.0171665
1527.0000	0.0171806
1526.5000	0.0171949
1526.0000	0.017213
1525.5000	0.0172327
1525.0000	0.0172409
1524.5000	0.0172537
1524.0000	0.0172781
1523.5000	0.0173073
1523.0000	0.0173301
1522.5000	0.0173448
1522.0000	0.0173705
1521.5000	0.0173915
1521.0000	0.0174094
1520.5000	0.0174195
1520.0000	0.0174255
1519.5000	0.0174301
1519.0000	0.0174441
1518.5000	0.017457
1518.0000	0.0174516
1517.5000	0.0174421
1517.0000	0.0174321
1516.5000	0.0174324
1516.0000	0.0174222
1515.5000	0.0174199
1515.0000	0.0173961
1514.5000	0.0173935
1514.0000	0.0173734
1513.5000	0.0173735
1513.0000	0.0173702
1512.5000	0.0173621
1512.0000	0.0173324
1511.5000	0.0173288
1511.0000	0.017325
1510.5000	0.0173265
1510.0000	0.017312
1509.5000	0.017323
1509.0000	0.0173215
1508.5000	0.0173313
1508.0000	0.0173308
1507.5000	0.0173429
1507.0000	0.0173529
1506.5000	0.0173557
1506.0000	0.0173605
1505.5000	0.0173673
1505.0000	0.0173703
1504.5000	0.0173727
1504.0000	0.0173777
1503.5000	0.0173855
1503.0000	0.0173866
1502.5000	0.017391
1502.0000	0.0173934
1501.5000	0.017405
1501.0000	0.0174024
1500.5000	0.0173998
1500.0000	0.0173978
1499.5000	0.0173989
1499.0000	0.0173978
1498.5000	0.0173996
1498.0000	0.0173982
1497.5000	0.0174049
1497.0000	0.0173984
1496.5000	0.0173993
1496.0000	0.0173991
1495.5000	0.017411
1495.0000	0.0174283
1494.5000	0.0174429
1494.0000	0.017454
1493.5000	0.0174629
1493.0000	0.0174763
1492.5000	0.0174923
1492.0000	0.0175089
1491.5000	0.0175221
1491.0000	0.0175341
1490.5000	0.0175425
1490.0000	0.0175473
1489.5000	0.0175606
1489.0000	0.0175716
1488.5000	0.0175853
1488.0000	0.0175903
1487.5000	0.0175987
1487.0000	0.0176021
1486.5000	0.0176082
1486.0000	0.0176166
1485.5000	0.0176322
1485.0000	0.0176446
1484.5000	0.0176548
1484.0000	0.0176598
1483.5000	0.0176737
1483.0000	0.0176801
1482.5000	0.0176878
1482.0000	0.0176837
1481.5000	0.0176909
1481.0000	0.0176892
1480.5000	0.0176841
1480.0000	0.0176714
1479.5000	0.0176721
1479.0000	0.0176565
1478.5000	0.017652
1478.0000	0.0176394
1477.5000	0.0176352
1477.0000	0.0176054
1476.5000	0.0175886
1476.0000	0.0175685
1475.5000	0.0175746
1475.0000	0.0175672
1474.5000	0.0175611
1474.0000	0.0175697
1473.5000	0.0175827
1473.0000	0.0175958
1472.5000	0.0175983
1472.0000	0.0176008
1471.5000	0.0176059
1471.0000	0.0176025
1470.5000	0.0176005
1470.0000	0.0176004
1469.5000	0.0176087
1469.0000	0.0176259
1468.5000	0.0176424
1468.0000	0.0176715
1467.5000	0.017682
1467.0000	0.0177009
1466.5000	0.0177188
1466.0000	0.0177472
1465.5000	0.0177586
1465.0000	0.0177732
1464.5000	0.0177828
1464.0000	0.0178061
1463.5000	0.0178137
1463.0000	0.0178256
1462.5000	0.0178285
1462.0000	0.0178307
1461.5000	0.017834
1461.0000	0.0178275
1460.5000	0.0178237
1460.0000	0.0178194
1459.5000	0.0178165
1459.0000	0.0178155
1458.5000	0.0178224
1458.0000	0.017827
1457.5000	0.0178339
1457.0000	0.0178332
1456.5000	0.017837
1456.0000	0.0178425
1455.5000	0.0178469
1455.0000	0.0178542
1454.5000	0.0178603
1454.0000	0.0178783
1453.5000	0.0178834
1453.0000	0.0179048
1452.5000	0.0179165
1452.0000	0.0179348
1451.5000	0.0179317
1451.0000	0.0179379
1450.5000	0.0179371
1450.0000	0.0179283
1449.5000	0.0179191
1449.0000	0.0179165
1448.5000	0.0179127
1448.0000	0.0179144
1447.5000	0.0179083
1447.0000	0.0179045
1446.5000	0.0178926
1446.0000	0.017881
1445.5000	0.0178768
1445.0000	0.0178758
1444.5000	0.0178711
1444.0000	0.0178874
1443.5000	0.0178923
1443.0000	0.0178987
1442.5000	0.0179043
1442.0000	0.0179166
1441.5000	0.01792
1441.0000	0.0179235
1440.5000	0.0179281
1440.0000	0.017933
1439.5000	0.0179264
1439.0000	0.0179277
1438.5000	0.0179306
1438.0000	0.0179442
1437.5000	0.0179523
1437.0000	0.0179606
1436.5000	0.017963
1436.0000	0.0179705
1435.5000	0.0179736
1435.0000	0.0179791
1434.5000	0.017977
1434.0000	0.0179931
1433.5000	0.018004
1433.0000	0.0180361
1432.5000	0.0180561
1432.0000	0.0180913
1431.5000	0.0181111
1431.0000	0.0181403
1430.5000	0.0181626
1430.0000	0.0181794
1429.5000	0.0181846
1429.0000	0.0181961
1428.5000	0.018203
1428.0000	0.018222
1427.5000	0.0182358
1427.0000	0.0182554
1426.5000	0.0182726
1426.0000	0.0182741
1425.5000	0.0182731
1425.0000	0.0182642
1424.5000	0.0182632
1424.0000	0.0182508
1423.5000	0.0182253
1423.0000	0.0182015
1422.5000	0.0181923
1422.0000	0.0182057
1421.5000	0.0182161
1421.0000	0.0182381
1420.5000	0.0182451
1420.0000	0.0182659
1419.5000	0.0182735
1419.0000	0.0182766
1418.5000	0.0182739
1418.0000	0.0182804
1417.5000	0.0182928
1417.0000	0.0183006
1416.5000	0.0182997
1416.0000	0.0182903
1415.5000	0.0182863
1415.0000	0.0182727
1414.5000	0.0182543
1414.0000	0.0182241
1413.5000	0.0182034
1413.0000	0.0182099
1412.5000	0.0182201
1412.0000	0.0182406
1411.5000	0.0182328
1411.0000	0.0182341
1410.5000	0.0182399
1410.0000	0.0182466
1409.5000	0.0182316
1409.0000	0.018206
1408.5000	0.0182202
1408.0000	0.018297
1407.5000	0.0183395
1407.0000	0.0183993
1406.5000	0.0184395
1406.0000	0.0185361
1405.5000	0.0185973
1405.0000	0.01865
1404.5000	0.0186503
1404.0000	0.0186721
1403.5000	0.018674
1403.0000	0.0186622
1402.5000	0.0186209
1402.0000	0.018563
1401.5000	0.0185418
1401.0000	0.0185136
1400.5000	0.0185218
1400.0000	0.0185509
1399.5000	0.0185971
1399.0000	0.0186486
1398.5000	0.0186947
1398.0000	0.0187477
1397.5000	0.0187689
1397.0000	0.0188144
1396.5000	0.0188205
1396.0000	0.0188531
1395.5000	0.0188557
1395.0000	0.0188665
1394.5000	0.0188573
1394.0000	0.0188514
1393.5000	0.0188503
1393.0000	0.0188463
1392.5000	0.018835
1392.0000	0.0188033
1391.5000	0.0187847
1391.0000	0.0187492
1390.5000	0.0187238
1390.0000	0.0186519
1389.5000	0.0186034
1389.0000	0.0185875
1388.5000	0.0185924
1388.0000	0.0185891
1387.5000	0.0185764
1387.0000	0.0185897
1386.5000	0.0186082
1386.0000	0.0187008
1385.5000	0.0186986
1385.0000	0.0187236
1384.5000	0.0187225
1384.0000	0.0187899
1383.5000	0.0188202
1383.0000	0.0187562
1382.5000	0.0186769
1382.0000	0.0185512
1381.5000	0.0185219
1381.0000	0.0183971
1380.5000	0.0183156
1380.0000	0.0182338
1379.5000	0.0182419
1379.0000	0.018356
1378.5000	0.0184377
1378.0000	0.0185648
1377.5000	0.018631
1377.0000	0.0187456
1376.5000	0.018797
1376.0000	0.0188129
1375.5000	0.0188032
1375.0000	0.0187622
1374.5000	0.0187419
1374.0000	0.0187127
1373.5000	0.0186826
1373.0000	0.0186719
1372.5000	0.0186319
1372.0000	0.0186021
1371.5000	0.0185364
1371.0000	0.0185193
1370.5000	0.0184953
1370.0000	0.018461
1369.5000	0.0184664
1369.0000	0.0185132
1368.5000	0.018583
1368.0000	0.0186341
1367.5000	0.0186751
1367.0000	0.018698
1366.5000	0.0186941
1366.0000	0.0186928
1365.5000	0.0186864
1365.0000	0.0187083
1364.5000	0.018709
1364.0000	0.0187289
1363.5000	0.0187426
1363.0000	0.0188018
1362.5000	0.0187979
1362.0000	0.0187623
1361.5000	0.0187287
1361.0000	0.0187566
1360.5000	0.0187847
1360.0000	0.0187823
1359.5000	0.0187555
1359.0000	0.0187082
1358.5000	0.018711
1358.0000	0.0187051
1357.5000	0.0186649
1357.0000	0.0185995
1356.5000	0.0185415
1356.0000	0.0184758
1355.5000	0.0183979
1355.0000	0.018299
1354.5000	0.0182594
1354.0000	0.0182309
1353.5000	0.018259
1353.0000	0.0182864
1352.5000	0.0183378
1352.0000	0.0184013
1351.5000	0.0184618
1351.0000	0.0185357
1350.5000	0.0185635
1350.0000	0.0185965
1349.5000	0.0186251
1349.0000	0.018678
1348.5000	0.0187031
1348.0000	0.0187276
1347.5000	0.018735
1347.0000	0.0187493
1346.5000	0.0187554
1346.0000	0.0187619
1345.5000	0.0187653
1345.0000	0.0187679
1344.5000	0.0187753
1344.0000	0.0187799
1343.5000	0.0187801
1343.0000	0.0187859
1342.5000	0.0187955
1342.0000	0.018795
1341.5000	0.0187898
1341.0000	0.0187848
1340.5000	0.0187825
1340.0000	0.0187813
1339.5000	0.0187796
1339.0000	0.0187817
1338.5000	0.018787
1338.0000	0.0187931
1337.5000	0.0188016
1337.0000	0.0188002
1336.5000	0.0188084
1336.0000	0.018803
1335.5000	0.0187979
1335.0000	0.0188001
1334.5000	0.018807
1334.0000	0.0188189
1333.5000	0.0188209
1333.0000	0.0188163
1332.5000	0.0188105
1332.0000	0.0187918
1331.5000	0.018785
1331.0000	0.0187784
1330.5000	0.0187802
1330.0000	0.0187802
1329.5000	0.0187839
1329.0000	0.0187873
1328.5000	0.0187992
1328.0000	0.0188053
1327.5000	0.018811
1327.0000	0.0188209
1326.5000	0.0188248
1326.0000	0.018836
1325.5000	0.0188461
1325.0000	0.018857
1324.5000	0.0188725
1324.0000	0.0188822
1323.5000	0.0188928
1323.0000	0.0189123
1322.5000	0.0189271
1322.0000	0.0189379
1321.5000	0.0189477
1321.0000	0.0189595
1320.5000	0.0189762
1320.0000	0.0189954
1319.5000	0.0190126
1319.0000	0.0190197
1318.5000	0.0190278
1318.0000	0.0190368
1317.5000	0.0190529
1317.0000	0.0190685
1316.5000	0.0190749
1316.0000	0.0190771
1315.5000	0.019082
1315.0000	0.0190858
1314.5000	0.0190887
1314.0000	0.0190875
1313.5000	0.0190837
1313.0000	0.0190734
1312.5000	0.0190663
1312.0000	0.0190507
1311.5000	0.0190454
1311.0000	0.0190318
1310.5000	0.0190252
1310.0000	0.0190212
1309.5000	0.0190283
1309.0000	0.0190337
1308.5000	0.0190397
1308.0000	0.0190376
1307.5000	0.0190463
1307.0000	0.0190534
1306.5000	0.0190689
1306.0000	0.0190828
1305.5000	0.0190929
1305.0000	0.0190955
1304.5000	0.0191023
1304.0000	0.0191042
1303.5000	0.019117
1303.0000	0.0191265
1302.5000	0.0191465
1302.0000	0.0191634
1301.5000	0.0191749
1301.0000	0.0191732
1300.5000	0.0191841
1300.0000	0.0191894
1299.5000	0.0191964
1299.0000	0.0192049
1298.5000	0.019214
1298.0000	0.019231
1297.5000	0.0192399
1297.0000	0.0192556
1296.5000	0.0192586
1296.0000	0.0192651
1295.5000	0.0192637
1295.0000	0.0192714
1294.5000	0.01927
1294.0000	0.0192666
1293.5000	0.0192673
1293.0000	0.0192777
1292.5000	0.0192973
1292.0000	0.0193153
1291.5000	0.0193308
1291.0000	0.0193407
1290.5000	0.019353
1290.0000	0.0193615
1289.5000	0.0193708
1289.0000	0.0193766
1288.5000	0.019388
1288.0000	0.0193847
1287.5000	0.0193854
1287.0000	0.0193772
1286.5000	0.0193802
1286.0000	0.0193701
1285.5000	0.0193688
1285.0000	0.0193619
1284.5000	0.0193599
1284.0000	0.0193564
1283.5000	0.0193562
1283.0000	0.0193548
1282.5000	0.0193532
1282.0000	0.0193488
1281.5000	0.0193529
1281.0000	0.0193581
1280.5000	0.0193628
1280.0000	0.0193731
1279.5000	0.0193867
1279.0000	0.019411
1278.5000	0.0194231
1278.0000	0.0194414
1277.5000	0.0194555
1277.0000	0.0194811
1276.5000	0.019493
1276.0000	0.0195124
1275.5000	0.0195344
1275.0000	0.0195624
1274.5000	0.0195767
1274.0000	0.0195855
1273.5000	0.0195945
1273.0000	0.0196118
1272.5000	0.0196248
1272.0000	0.0196389
1271.5000	0.0196408
1271.0000	0.0196451
1270.5000	0.0196461
1270.0000	0.0196307
1269.5000	0.0196312
1269.0000	0.0196286
1268.5000	0.0196407
1268.0000	0.0196428
1267.5000	0.0196397
1267.0000	0.0196276
1266.5000	0.0196286
1266.0000	0.0196233
1265.5000	0.0196342
1265.0000	0.0196336
1264.5000	0.0196477
1264.0000	0.0196523
1263.5000	0.0196706
1263.0000	0.0196884
1262.5000	0.0197037
1262.0000	0.0197065
1261.5000	0.0197076
1261.0000	0.0197136
1260.5000	0.01972
1260.0000	0.0197247
1259.5000	0.0197303
1259.0000	0.0197291
1258.5000	0.0197313
1258.0000	0.0197226
1257.5000	0.0197229
1257.0000	0.0197198
1256.5000	0.0197235
1256.0000	0.0197274
1255.5000	0.0197386
1255.0000	0.0197493
1254.5000	0.0197588
1254.0000	0.0197722
1253.5000	0.0197834
1253.0000	0.0198084
1252.5000	0.0198252
1252.0000	0.0198463
1251.5000	0.0198597
1251.0000	0.019873
1250.5000	0.0198851
1250.0000	0.0198938
1249.5000	0.0199056
1249.0000	0.0199159
1248.5000	0.0199285
1248.0000	0.0199445
1247.5000	0.0199549
1247.0000	0.0199696
1246.5000	0.0199742
1246.0000	0.0199718
1245.5000	0.0199757
1245.0000	0.019978
1244.5000	0.0199808
1244.0000	0.019978
1243.5000	0.019978
1243.0000	0.0199771
1242.5000	0.019983
1242.0000	0.0199732
1241.5000	0.0199698
1241.0000	0.0199602
1240.5000	0.0199622
1240.0000	0.0199672
1239.5000	0.0199742
1239.0000	0.0199736
1238.5000	0.019977
1238.0000	0.0199922
1237.5000	0.020006
1237.0000	0.0200238
1236.5000	0.0200312
1236.0000	0.0200442
1235.5000	0.0200544
1235.0000	0.0200703
1234.5000	0.0200817
1234.0000	0.0200883
1233.5000	0.020097
1233.0000	0.0200999
1232.5000	0.0201084
1232.0000	0.0201288
1231.5000	0.0201387
1231.0000	0.0201517
1230.5000	0.0201599
1230.0000	0.0201707
1229.5000	0.020184
1229.0000	0.0201999
1228.5000	0.0202086
1228.0000	0.0202241
1227.5000	0.0202371
1227.0000	0.0202499
1226.5000	0.0202597
1226.0000	0.0202789
1225.5000	0.020291
1225.0000	0.0203093
1224.5000	0.0203173
1224.0000	0.0203311
1223.5000	0.0203363
1223.0000	0.0203487
1222.5000	0.0203564
1222.0000	0.0203681
1221.5000	0.0203777
1221.0000	0.0203859
1220.5000	0.0203883
1220.0000	0.0203843
1219.5000	0.0203908
1219.0000	0.0203894
1218.5000	0.0203869
1218.0000	0.0203819
1217.5000	0.020376
1217.0000	0.020386
1216.5000	0.0203876
1216.0000	0.0204022
1215.5000	0.0204107
1215.0000	0.0204268
1214.5000	0.0204294
1214.0000	0.0204424
1213.5000	0.020455
1213.0000	0.0204773
1212.5000	0.0204866
1212.0000	0.0205105
1211.5000	0.0205267
1211.0000	0.0205484
1210.5000	0.0205595
1210.0000	0.0205805
1209.5000	0.0205925
1209.0000	0.0206123
1208.5000	0.0206221
1208.0000	0.0206445
1207.5000	0.0206506
1207.0000	0.0206654
1206.5000	0.0206709
1206.0000	0.0206855
1205.5000	0.0206889
1205.0000	0.0207111
1204.5000	0.0207108
1204.0000	0.0207311
1203.5000	0.0207328
1203.0000	0.0207358
1202.5000	0.0207336
1202.0000	0.0207253
1201.5000	0.0207268
1201.0000	0.0207406
1200.5000	0.0207568
1200.0000	0.0207894
1199.5000	0.0207904
1199.0000	0.0207962
1198.5000	0.0208043
1198.0000	0.0208254
1197.5000	0.0208308
1197.0000	0.0208416
1196.5000	0.0208466
1196.0000	0.0208625
1195.5000	0.020873
1195.0000	0.0208922
1194.5000	0.0208946
1194.0000	0.0209046
1193.5000	0.0209031
1193.0000	0.0209144
1192.5000	0.0209215
1192.0000	0.0209317
1191.5000	0.0209363
1191.0000	0.0209534
1190.5000	0.0209689
1190.0000	0.0209877
1189.5000	0.0209996
1189.0000	0.0210101
1188.5000	0.021023
1188.0000	0.0210347
1187.5000	0.0210495
1187.0000	0.0210678
1186.5000	0.0210828
1186.0000	0.0210887
1185.5000	0.0210964
1185.0000	0.0211108
1184.5000	0.021123
1184.0000	0.0211256
1183.5000	0.0211267
1183.0000	0.0211261
1182.5000	0.0211249
1182.0000	0.0211152
1181.5000	0.0211078
1181.0000	0.0210917
1180.5000	0.0210858
1180.0000	0.0210791
1179.5000	0.0210713
1179.0000	0.0210629
1178.5000	0.0210623
1178.0000	0.0210538
1177.5000	0.0210628
1177.0000	0.0210684
1176.5000	0.0210782
1176.0000	0.0210817
1175.5000	0.021087
1175.0000	0.0210997
1174.5000	0.0211089
1174.0000	0.0211204
1173.5000	0.0211233
1173.0000	0.0211224
1172.5000	0.0211317
1172.0000	0.0211376
1171.5000	0.0211456
1171.0000	0.021154
1170.5000	0.0211616
1170.0000	0.0211614
1169.5000	0.0211625
1169.0000	0.0211667
1168.5000	0.0211823
1168.0000	0.02119
1167.5000	0.0212
1167.0000	0.0211988
1166.5000	0.021211
1166.0000	0.021221
1165.5000	0.0212368
1165.0000	0.0212488
1164.5000	0.0212546
1164.0000	0.0212604
1163.5000	0.021275
1163.0000	0.0212897
1162.5000	0.0212988
1162.0000	0.0212998
1161.5000	0.0213084
1161.0000	0.0213064
1160.5000	0.0213099
1160.0000	0.0213058
1159.5000	0.0213076
1159.0000	0.0213039
1158.5000	0.021305
1158.0000	0.0212967
1157.5000	0.021295
1157.0000	0.0212849
1156.5000	0.0212889
1156.0000	0.0212878
1155.5000	0.0212957
1155.0000	0.0213029
1154.5000	0.0213166
1154.0000	0.0213325
1153.5000	0.0213436
1153.0000	0.0213454
1152.5000	0.0213612
1152.0000	0.0213618
1151.5000	0.0213753
1151.0000	0.0213848
1150.5000	0.0214038
1150.0000	0.0214199
1149.5000	0.0214409
1149.0000	0.0214503
1148.5000	0.0214597
1148.0000	0.0214559
1147.5000	0.0214638
1147.0000	0.021474
1146.5000	0.0214857
1146.0000	0.0214826
1145.5000	0.0214859
1145.0000	0.0214767
1144.5000	0.0214808
1144.0000	0.0214802
1143.5000	0.0214891
1143.0000	0.0214866
1142.5000	0.0214899
1142.0000	0.0214805
1141.5000	0.0214842
1141.0000	0.0214853
1140.5000	0.0214908
1140.0000	0.0214917
1139.5000	0.0214966
1139.0000	0.0215106
1138.5000	0.0215201
1138.0000	0.0215265
1137.5000	0.0215257
1137.0000	0.0215148
1136.5000	0.0215157
1136.0000	0.0215142
1135.5000	0.0215113
1135.0000	0.0215063
1134.5000	0.0215099
1134.0000	0.0215117
1133.5000	0.0215219
1133.0000	0.0215264
1132.5000	0.0215437
1132.0000	0.0215564
1131.5000	0.0215839
1131.0000	0.0216015
1130.5000	0.0216279
1130.0000	0.0216433
1129.5000	0.0216578
1129.0000	0.0216685
1128.5000	0.021674
1128.0000	0.0216776
1127.5000	0.0216869
1127.0000	0.0216837
1126.5000	0.0216913
1126.0000	0.0216878
1125.5000	0.0216929
1125.0000	0.0216931
1124.5000	0.0216927
1124.0000	0.0216737
1123.5000	0.0216706
1123.0000	0.0216534
1122.5000	0.021656
1122.0000	0.0216474
1121.5000	0.021656
1121.0000	0.0216541
1120.5000	0.0216641
1120.0000	0.0216663
1119.5000	0.0216842
1119.0000	0.0216909
1118.5000	0.0217
1118.0000	0.0216988
1117.5000	0.0217141
1117.0000	0.0217226
1116.5000	0.0217304
1116.0000	0.0217371
1115.5000	0.0217479
1115.0000	0.0217502
1114.5000	0.021759
1114.0000	0.0217606
1113.5000	0.0217716
1113.0000	0.0217867
1112.5000	0.0217966
1112.0000	0.0218104
1111.5000	0.0218234
1111.0000	0.021843
1110.5000	0.0218585
1110.0000	0.0218705
1109.5000	0.0218756
1109.0000	0.0218842
1108.5000	0.0218941
1108.0000	0.0218978
1107.5000	0.0219036
1107.0000	0.0219072
1106.5000	0.0219162
1106.0000	0.0219145
1105.5000	0.0219182
1105.0000	0.0219238
1104.5000	0.0219285
1104.0000	0.0219224
1103.5000	0.0219177
1103.0000	0.0219019
1102.5000	0.021899
1102.0000	0.0218932
1101.5000	0.0218955
1101.0000	0.0218979
1100.5000	0.0219149
1100.0000	0.0219252
1099.5000	0.0219334
1099.0000	0.0219378
1098.5000	0.0219498
1098.0000	0.0219652
1097.5000	0.02199
1097.0000	0.0219996
1096.5000	0.0220176
1096.0000	0.0220288
1095.5000	0.0220397
1095.0000	0.0220604
1094.5000	0.0220679
1094.0000	0.0220706
1093.5000	0.0220737
1093.0000	0.0220814
1092.5000	0.0220945
1092.0000	0.0221048
1091.5000	0.0221076
1091.0000	0.0221081
1090.5000	0.0221127
1090.0000	0.0221059
1089.5000	0.0221034
1089.0000	0.0221042
1088.5000	0.0221133
1088.0000	0.0221267
1087.5000	0.0221304
1087.0000	0.0221367
1086.5000	0.0221401
1086.0000	0.0221396
1085.5000	0.0221342
1085.0000	0.022122
1084.5000	0.0221231
1084.0000	0.0221193
1083.5000	0.0221209
1083.0000	0.0221245
1082.5000	0.0221261
1082.0000	0.0221263
1081.5000	0.0221306
1081.0000	0.022137
1080.5000	0.0221488
1080.0000	0.0221631
1079.5000	0.0221775
1079.0000	0.0222041
1078.5000	0.0222236
1078.0000	0.0222373
1077.5000	0.0222447
1077.0000	0.0222522
1076.5000	0.0222598
1076.0000	0.0222669
1075.5000	0.0222723
1075.0000	0.0222763
1074.5000	0.0222856
1074.0000	0.0222968
1073.5000	0.0223001
1073.0000	0.0223036
1072.5000	0.0222991
1072.0000	0.0222936
1071.5000	0.0222828
1071.0000	0.0222747
1070.5000	0.0222665
1070.0000	0.0222625
1069.5000	0.0222658
1069.0000	0.0222672
1068.5000	0.0222658
1068.0000	0.0222729
1067.5000	0.0222771
1067.0000	0.0222821
1066.5000	0.0222763
1066.0000	0.0222725
1065.5000	0.0222704
1065.0000	0.0222789
1064.5000	0.0222856
1064.0000	0.0222992
1063.5000	0.022305
1063.0000	0.0223086
1062.5000	0.0223067
1062.0000	0.0223159
1061.5000	0.0223237
1061.0000	0.0223397
1060.5000	0.0223388
1060.0000	0.0223409
1059.5000	0.0223425
1059.0000	0.0223576
1058.5000	0.0223568
1058.0000	0.0223653
1057.5000	0.022369
1057.0000	0.0223859
1056.5000	0.0223892
1056.0000	0.022388
1055.5000	0.0223747
1055.0000	0.0223668
1054.5000	0.0223659
1054.0000	0.0223586
1053.5000	0.0223494
1053.0000	0.0223371
1052.5000	0.022329
1052.0000	0.0223284
1051.5000	0.0223261
1051.0000	0.0223277
1050.5000	0.022324
1050.0000	0.0223373
1049.5000	0.022336
1049.0000	0.0223505
1048.5000	0.0223571
1048.0000	0.0223741
1047.5000	0.0223748
1047.0000	0.0223906
1046.5000	0.0224024
1046.0000	0.0224203
1045.5000	0.0224219
1045.0000	0.0224326
1044.5000	0.0224289
1044.0000	0.0224341
1043.5000	0.0224283
1043.0000	0.02243
1042.5000	0.0224282
1042.0000	0.0224241
1041.5000	0.0224122
1041.0000	0.0224075
1040.5000	0.0223991
1040.0000	0.0224082
1039.5000	0.0224065
1039.0000	0.022415
1038.5000	0.0224091
1038.0000	0.0224116
1037.5000	0.0224068
1037.0000	0.0224044
1036.5000	0.0224028
1036.0000	0.022389
1035.5000	0.0223857
1035.0000	0.0223791
1034.5000	0.0223778
1034.0000	0.0223829
1033.5000	0.0223838
1033.0000	0.0223898
1032.5000	0.0223927
1032.0000	0.0224004
1031.5000	0.0223999
1031.0000	0.02241
1030.5000	0.0224161
1030.0000	0.0224473
1029.5000	0.0224574
1029.0000	0.0224753
1028.5000	0.0224758
1028.0000	0.0224854
1027.5000	0.0224896
1027.0000	0.0224969
1026.5000	0.0224931
1026.0000	0.0224845
1025.5000	0.022476
1025.0000	0.0224697
1024.5000	0.0224628
1024.0000	0.0224482
1023.5000	0.0224407
1023.0000	0.0224434
1022.5000	0.0224389
1022.0000	0.0224431
1021.5000	0.0224422
1021.0000	0.0224505
1020.5000	0.0224492
1020.0000	0.0224451
1019.5000	0.0224498
1019.0000	0.0224601
1018.5000	0.0224566
1018.0000	0.022458
1017.5000	0.0224597
1017.0000	0.0224722
1016.5000	0.022469
1016.0000	0.0224756
1015.5000	0.0224785
1015.0000	0.0224903
1014.5000	0.0224921
1014.0000	0.0225112
1013.5000	0.0225237
1013.0000	0.0225386
1012.5000	0.0225316
1012.0000	0.0225382
1011.5000	0.022539
1011.0000	0.0225435
1010.5000	0.0225449
1010.0000	0.0225463
1009.5000	0.0225422
1009.0000	0.0225373
1008.5000	0.0225158
1008.0000	0.0224951
1007.5000	0.022471
1007.0000	0.0224698
1006.5000	0.0224658
1006.0000	0.0224673
1005.5000	0.0224618
1005.0000	0.0224656
1004.5000	0.0224788
1004.0000	0.0224982
1003.5000	0.0225108
1003.0000	0.0225166
1002.5000	0.0225189
1002.0000	0.0225192
1001.5000	0.0225185
1001.0000	0.022529
1000.5000	0.0225317
1000.0000	0.022533
999.5000	0.0225265
999.0000	0.0225263
998.5000	0.0225232
998.0000	0.0225269
997.5000	0.0225225
997.0000	0.0225266
996.5000	0.0225187
996.0000	0.0225105
995.5000	0.0225085
995.0000	0.0225167
994.5000	0.0225194
994.0000	0.0225089
993.5000	0.0225019
993.0000	0.0224978
992.5000	0.0224962
992.0000	0.022493
991.5000	0.022481
991.0000	0.0224644
990.5000	0.0224576
990.0000	0.0224505
989.5000	0.0224546
989.0000	0.0224697
988.5000	0.0224827
988.0000	0.0224989
987.5000	0.0225021
987.0000	0.0225144
986.5000	0.0225251
986.0000	0.0225285
985.5000	0.0225318
985.0000	0.0225364
984.5000	0.0225356
984.0000	0.0225356
983.5000	0.0225295
983.0000	0.0225373
982.5000	0.0225329
982.0000	0.0225169
981.5000	0.0225115
981.0000	0.0225015
980.5000	0.0225016
980.0000	0.0224902
979.5000	0.0224812
979.0000	0.0224763
978.5000	0.0224733
978.0000	0.0224718
977.5000	0.0224716
977.0000	0.0224766
976.5000	0.0224797
976.0000	0.0224823
975.5000	0.0224865
975.0000	0.02249
974.5000	0.0224914
974.0000	0.0224819
973.5000	0.0224818
973.0000	0.0224853
972.5000	0.0224924
972.0000	0.0224991
971.5000	0.022509
971.0000	0.0225232
970.5000	0.0225298
970.0000	0.0225274
969.5000	0.0225232
969.0000	0.0225175
968.5000	0.0225164
968.0000	0.0225204
967.5000	0.0225137
967.0000	0.0225102
966.5000	0.0224954
966.0000	0.0224781
965.5000	0.0224708
965.0000	0.0224541
964.5000	0.0224523
964.0000	0.0224393
963.5000	0.0224498
963.0000	0.0224574
962.5000	0.0224681
962.0000	0.0224731
961.5000	0.0224766
961.0000	0.0224803
960.5000	0.0224876
960.0000	0.0224923
959.5000	0.0224984
959.0000	0.0225025
958.5000	0.0225039
958.0000	0.0224896
957.5000	0.022491
957.0000	0.0224836
956.5000	0.0224914
956.0000	0.022493
955.5000	0.0225013
955.0000	0.0225051
954.5000	0.0225001
954.0000	0.022495
953.5000	0.0224917
953.0000	0.0224828
952.5000	0.0224773
952.0000	0.0224613
951.5000	0.0224675
951.0000	0.0224625
950.5000	0.022465
950.0000	0.0224654
949.5000	0.0224593
949.0000	0.022453
948.5000	0.0224563
948.0000	0.0224622
947.5000	0.0224733
947.0000	0.0224826
946.5000	0.0224936
946.0000	0.0225063
945.5000	0.0225136
945.0000	0.0225105
944.5000	0.022512
944.0000	0.022504
943.5000	0.0224962
943.0000	0.0224736
942.5000	0.0224693
942.0000	0.0224697
941.5000	0.0224729
941.0000	0.022475
940.5000	0.0224748
940.0000	0.0224796
939.5000	0.0224782
939.0000	0.0224868
938.5000	0.0224873
938.0000	0.0224753
937.5000	0.0224759
937.0000	0.0224701
936.5000	0.0224797
936.0000	0.0224647
935.5000	0.0224634
935.0000	0.0224589
934.5000	0.0224664
934.0000	0.0224787
933.5000	0.0224942
933.0000	0.022503
932.5000	0.0225087
932.0000	0.0225146
931.5000	0.0225204
931.0000	0.0225083
930.5000	0.0225068
930.0000	0.0224894
929.5000	0.0224872
929.0000	0.0224685
928.5000	0.0224614
928.0000	0.022448
927.5000	0.0224414
927.0000	0.0224336
926.5000	0.0224384
926.0000	0.0224373
925.5000	0.0224508
925.0000	0.0224561
924.5000	0.0224625
924.0000	0.0224484
923.5000	0.0224536
923.0000	0.0224561
922.5000	0.0224743
922.0000	0.0224673
921.5000	0.0224726
921.0000	0.0224572
920.5000	0.0224593
920.0000	0.0224504
919.5000	0.0224559
919.0000	0.0224643
918.5000	0.02247
918.0000	0.0224564
917.5000	0.0224625
917.0000	0.0224493
916.5000	0.0224536
916.0000	0.0224281
915.5000	0.0224209
915.0000	0.0224136
914.5000	0.0224123
914.0000	0.0224087
913.5000	0.0224052
913.0000	0.0224003
912.5000	0.0224097
912.0000	0.0224188
911.5000	0.0224303
911.0000	0.0224421
910.5000	0.0224546
910.0000	0.0224624
909.5000	0.0224773
909.0000	0.0224766
908.5000	0.022485
908.0000	0.0224672
907.5000	0.022477
907.0000	0.0224704
906.5000	0.0224594
906.0000	0.0224439
905.5000	0.0224516
905.0000	0.0224479
904.5000	0.022452
904.0000	0.0224476
903.5000	0.0224584
903.0000	0.0224622
902.5000	0.0224663
902.0000	0.0224699
901.5000	0.0224807
901.0000	0.0224807
900.5000	0.0224846
900.0000	0.022468
899.5000	0.0224737
899.0000	0.0224704
898.5000	0.0224887
898.0000	0.0224866
897.5000	0.0224893
897.0000	0.0224954
896.5000	0.0225066
896.0000	0.022527
895.5000	0.0225382
895.0000	0.0225369
894.5000	0.0225371
894.0000	0.0225157
893.5000	0.022516
893.0000	0.0225118
892.5000	0.0225268
892.0000	0.0225178
891.5000	0.0225221
891.0000	0.0225138
890.5000	0.0225269
890.0000	0.022532
889.5000	0.0225478
889.0000	0.0225633
888.5000	0.0225666
888.0000	0.0225768
887.5000	0.0225871
887.0000	0.0225949
886.5000	0.0226039
886.0000	0.0226069
885.5000	0.022612
885.0000	0.0226296
884.5000	0.0226318
884.0000	0.0226487
883.5000	0.0226597
883.0000	0.0226807
882.5000	0.0226927
882.0000	0.0226824
881.5000	0.0226848
881.0000	0.022685
880.5000	0.0226889
880.0000	0.0226897
879.5000	0.0226809
879.0000	0.0226956
878.5000	0.0227134
878.0000	0.0227328
877.5000	0.0227426
877.0000	0.022761
876.5000	0.022787
876.0000	0.0227952
875.5000	0.0228077
875.0000	0.0228166
874.5000	0.0228269
874.0000	0.0228408
873.5000	0.022846
873.0000	0.0228754
872.5000	0.0228753
872.0000	0.0229186
871.5000	0.022923
871.0000	0.0229312
870.5000	0.022937
870.0000	0.0229511
869.5000	0.0229619
869.0000	0.0229713
868.5000	0.0229947
868.0000	0.023019
867.5000	0.0230268
867.0000	0.0230388
866.5000	0.0230533
866.0000	0.0230766
865.5000	0.0230945
865.0000	0.0231327
864.5000	0.0231575
864.0000	0.0231919
863.5000	0.0232199
863.0000	0.0232463
862.5000	0.0232536
862.0000	0.0232814
861.5000	0.0232998
861.0000	0.023332
860.5000	0.0233426
860.0000	0.0233416
859.5000	0.0233704
859.0000	0.0234022
858.5000	0.0234222
858.0000	0.0234664
857.5000	0.023497
857.0000	0.0235334
856.5000	0.0235503
856.0000	0.0235919
855.5000	0.0236211
855.0000	0.0236931
854.5000	0.0237228
854.0000	0.0237747
853.5000	0.023789
853.0000	0.0238165
852.5000	0.0238308
852.0000	0.0238727
851.5000	0.0239175
851.0000	0.02398
850.5000	0.0240127
850.0000	0.0235748
849.5000	0.0235919
849.0000	0.0235379
848.5000	0.0235998
848.0000	0.023652
847.5000	0.0237237
847.0000	0.0236482
846.5000	0.0236459
846.0000	0.0236329
845.5000	0.0237085
845.0000	0.0237243
844.5000	0.0237541
844.0000	0.0237794
843.5000	0.0237866
843.0000	0.023857
842.5000	0.0238967
842.0000	0.0239351
841.5000	0.0239339
841.0000	0.0240357
840.5000	0.0240651
840.0000	0.0241359
839.5000	0.0241701
839.0000	0.0241726
838.5000	0.0242488
838.0000	0.0242649
837.5000	0.0242703
837.0000	0.0243094
836.5000	0.024331
836.0000	0.0244062
835.5000	0.0244393
835.0000	0.0245566
834.5000	0.0246192
834.0000	0.0246593
833.5000	0.0246362
833.0000	0.0246693
832.5000	0.0246997
832.0000	0.0248644
831.5000	0.0249732
831.0000	0.0251025
830.5000	0.0251186
830.0000	0.0251443
829.5000	0.0251579
829.0000	0.0252384
828.5000	0.025336
828.0000	0.025386
827.5000	0.0254109
827.0000	0.0254214
826.5000	0.0254912
826.0000	0.0256002
825.5000	0.0257016
825.0000	0.0257117
824.5000	0.02575
824.0000	0.0258037
823.5000	0.0259174
823.0000	0.0260591
822.5000	0.0261444
822.0000	0.0261708
821.5000	0.0261726
821.0000	0.0262509
820.5000	0.0263145
820.0000	0.0264303
819.5000	0.0264501
819.0000	0.0265623
818.5000	0.0265821
818.0000	0.0267502
817.5000	0.0268539
817.0000	0.026965
816.5000	0.026961
816.0000	0.0269535
815.5000	0.027028
815.0000	0.0270736
814.5000	0.0272051
814.0000	0.0272861
813.5000	0.0274473
813.0000	0.0275638
812.5000	0.0276573
812.0000	0.0278375
811.5000	0.0278818
811.0000	0.0279752
810.5000	0.0280752
810.0000	0.0282133
809.5000	0.0282378
809.0000	0.0282454
808.5000	0.028267
808.0000	0.0284159
807.5000	0.0284768
807.0000	0.0285855
806.5000	0.0286392
806.0000	0.0287761
805.5000	0.0288092
805.0000	0.0290507
804.5000	0.0291622
804.0000	0.0293411
803.5000	0.0293529
803.0000	0.0294136
802.5000	0.0295132
802.0000	0.02956
801.5000	0.0296442
801.0000	0.0297749
800.5000	0.029902
800.0000	0.0300642
799.5000	0.0301759
799.0000	0.030245
798.5000	0.0302705
798.0000	0.030378
797.5000	0.0304853
797.0000	0.030655
796.5000	0.0306801
796.0000	0.030755
795.5000	0.0308312
795.0000	0.0309775
794.5000	0.0310262
794.0000	0.0311459
793.5000	0.0311919
793.0000	0.0313448
792.5000	0.0314263
792.0000	0.0315475
791.5000	0.0316081
791.0000	0.0317183
790.5000	0.0318125
790.0000	0.0319353
789.5000	0.0320449
789.0000	0.0321735
788.5000	0.0322176
788.0000	0.0322901
787.5000	0.0323625
787.0000	0.0325628
786.5000	0.0327426
786.0000	0.0328727
785.5000	0.0329141
785.0000	0.0329612
784.5000	0.0330618
784.0000	0.033184
783.5000	0.0332264
783.0000	0.033338
782.5000	0.0333591
782.0000	0.0335228
781.5000	0.0336019
781.0000	0.0337723
780.5000	0.0338145
780.0000	0.0338811
779.5000	0.0338979
779.0000	0.0340478
778.5000	0.0340997
778.0000	0.0342322
777.5000	0.0342554
777.0000	0.0344247
776.5000	0.0345563
776.0000	0.0346762
775.5000	0.0347619
775.0000	0.0347467
774.5000	0.0348242
774.0000	0.0349065
773.5000	0.0350068
773.0000	0.0351028
772.5000	0.0351844
772.0000	0.0353317
771.5000	0.0354537
771.0000	0.0355815
770.5000	0.0356595
770.0000	0.0356146
769.5000	0.0356953
769.0000	0.0357758
768.5000	0.0358601
768.0000	0.0359846
767.5000	0.0360567
767.0000	0.0361786
766.5000	0.0361906
766.0000	0.0362626
765.5000	0.0362697
765.0000	0.0363969
764.5000	0.0364731
764.0000	0.0365855
763.5000	0.0366098
763.0000	0.0367187
762.5000	0.0367744
762.0000	0.0368912
761.5000	0.0369485
761.0000	0.0370312
760.5000	0.0370325
760.0000	0.0371058
759.5000	0.0371323
759.0000	0.0372972
758.5000	0.0373628
758.0000	0.0374726
757.5000	0.037555
757.0000	0.0375549
756.5000	0.03764
756.0000	0.037731
755.5000	0.0378019
755.0000	0.0378597
754.5000	0.0379118
754.0000	0.0380237
753.5000	0.0380508
753.0000	0.0381358
752.5000	0.0381072
752.0000	0.0383024
751.5000	0.0383232
751.0000	0.0384371
750.5000	0.0384219
750.0000	0.0384972
749.5000	0.0385889
749.0000	0.0387193
748.5000	0.0387787
748.0000	0.038905
747.5000	0.0389793
747.0000	0.039085
746.5000	0.0391488
746.0000	0.0392608
745.5000	0.0393243
745.0000	0.0394148
744.5000	0.0394645
744.0000	0.0395324
743.5000	0.0395824
743.0000	0.0396603
742.5000	0.0397282
742.0000	0.0398209
741.5000	0.0398851
741.0000	0.0399712
740.5000	0.0400581
740.0000	0.0400345
739.5000	0.0400461
739.0000	0.0401401
738.5000	0.0402476
738.0000	0.0403728
737.5000	0.0404656
737.0000	0.040558
736.5000	0.0406251
736.0000	0.0406818
735.5000	0.0407459
735.0000	0.0408055
734.5000	0.0409042
734.0000	0.0410452
733.5000	0.0411508
733.0000	0.0412171
732.5000	0.0412453
732.0000	0.0413107
731.5000	0.0413506
731.0000	0.0414893
730.5000	0.0414713
730.0000	0.0415377
729.5000	0.0415616
729.0000	0.0417344
728.5000	0.0418015
728.0000	0.0419012
727.5000	0.0419157
727.0000	0.0419446
726.5000	0.0419653
726.0000	0.0420289
725.5000	0.0421497
725.0000	0.0422195
724.5000	0.0423174
724.0000	0.0422805
723.5000	0.042301
723.0000	0.04234
722.5000	0.0424162
722.0000	0.0425136
721.5000	0.0425464
721.0000	0.0425736
720.5000	0.0426222
720.0000	0.0426683
719.5000	0.0427003
719.0000	0.0427316
718.5000	0.0427476
718.0000	0.0427459
717.5000	0.042766
717.0000	0.0428437
716.5000	0.0428984
716.0000	0.0429678
715.5000	0.0429785
715.0000	0.0429857
714.5000	0.0429695
714.0000	0.0429329
713.5000	0.0428952
713.0000	0.0429529
712.5000	0.0429954
712.0000	0.0430731
711.5000	0.043061
711.0000	0.0430225
710.5000	0.0430034
710.0000	0.043011
709.5000	0.0430357
709.0000	0.0430092
708.5000	0.0430156
708.0000	0.0430209
707.5000	0.0429834
707.0000	0.0429616
706.5000	0.0429331
706.0000	0.0429446
705.5000	0.0428899
705.0000	0.0428668
704.5000	0.0428084
704.0000	0.0427158
703.5000	0.0426568
703.0000	0.0425604
702.5000	0.04253
702.0000	0.0424749
701.5000	0.0424269
701.0000	0.0423242
700.5000	0.0422436
700.0000	0.0421223
699.5000	0.042073
699.0000	0.0420039
698.5000	0.0419459
698.0000	0.0417935
697.5000	0.0416285
697.0000	0.0414245
696.5000	0.0413454
696.0000	0.0412517
695.5000	0.0411748
695.0000	0.0409997
694.5000	0.0408433
694.0000	0.0405757
693.5000	0.0404384
693.0000	0.0401866
692.5000	0.0400167
692.0000	0.0397837
691.5000	0.0396202
691.0000	0.0393835
690.5000	0.0392067
690.0000	0.0389697
689.5000	0.0387891
689.0000	0.038622
688.5000	0.0385684
688.0000	0.0385262
687.5000	0.0385342
687.0000	0.0385981
686.5000	0.0386969
686.0000	0.0389604
685.5000	0.0391449
685.0000	0.0395621
684.5000	0.0398968
684.0000	0.0405023
683.5000	0.0409667
683.0000	0.0417222
682.5000	0.0422401
682.0000	0.042998
681.5000	0.0435153
681.0000	0.044138
680.5000	0.0445031
680.0000	0.0449718
679.5000	0.0452036
679.0000	0.0453387
678.5000	0.0452997
678.0000	0.0451957
677.5000	0.0450914
677.0000	0.044976
676.5000	0.0449145
676.0000	0.0448472
675.5000	0.0448589
675.0000	0.0447818
674.5000	0.044753
674.0000	0.0446388
673.5000	0.0446587
673.0000	0.0446298
672.5000	0.044625
672.0000	0.0446052
671.5000	0.0446267
671.0000	0.0445989
670.5000	0.0445852
670.0000	0.0445639
669.5000	0.0445922
669.0000	0.0445461
668.5000	0.0445265
668.0000	0.0445162
667.5000	0.044534
667.0000	0.0445113
666.5000	0.0444908
666.0000	0.0444703
665.5000	0.0444306
665.0000	0.044436
664.5000	0.0444203
664.0000	0.0444206
663.5000	0.0444017
663.0000	0.0444067
662.5000	0.0443658
662.0000	0.0443409
661.5000	0.0443403
661.0000	0.0443857
660.5000	0.0443812
660.0000	0.0443582
659.5000	0.0442821
659.0000	0.0442067
658.5000	0.0442039
658.0000	0.0441951
657.5000	0.0441619
657.0000	0.044176
656.5000	0.0441686
656.0000	0.0441439
655.5000	0.0441175
655.0000	0.0440798
654.5000	0.0440769
654.0000	0.0440605
653.5000	0.0440124
653.0000	0.0439897
652.5000	0.043917
652.0000	0.0438785
651.5000	0.0438453
651.0000	0.0438464
650.5000	0.0438796
650.0000	0.0438248
649.5000	0.0437916
649.0000	0.0437364
648.5000	0.043737
648.0000	0.0436864
647.5000	0.0436639
647.0000	0.0435931
646.5000	0.0435704
646.0000	0.0435352
645.5000	0.0435505
645.0000	0.0435212
644.5000	0.0435192
644.0000	0.0433868
643.5000	0.0433634
643.0000	0.0432279
642.5000	0.0432204
642.0000	0.0431798
641.5000	0.0431844
641.0000	0.0431249
640.5000	0.0430302
640.0000	0.0429875
639.5000	0.0429448
639.0000	0.0429274
638.5000	0.0429038
638.0000	0.0428695
637.5000	0.0428748
637.0000	0.0428227
636.5000	0.0427516
636.0000	0.0426278
635.5000	0.042572
635.0000	0.0425292
634.5000	0.0424775
634.0000	0.0424309
633.5000	0.0423896
633.0000	0.0423082
632.5000	0.0422646
632.0000	0.0421762
631.5000	0.0421988
631.0000	0.0421095
630.5000	0.0420618
630.0000	0.0420084
629.5000	0.0419543
629.0000	0.0418747
628.5000	0.0417625
628.0000	0.0416965
627.5000	0.0416712
627.0000	0.0416177
626.5000	0.0415504
626.0000	0.0414604
625.5000	0.0414592
625.0000	0.0413934
624.5000	0.0413428
624.0000	0.0412106
623.5000	0.0411291
623.0000	0.0410547
622.5000	0.041022
622.0000	0.0409401
621.5000	0.0408612
621.0000	0.0407776
620.5000	0.0407308
620.0000	0.0407317
619.5000	0.0406347
619.0000	0.0405649
618.5000	0.0404568
618.0000	0.0403926
617.5000	0.0403302
617.0000	0.040256
616.5000	0.0401984
616.0000	0.0401198
615.5000	0.0400619
615.0000	0.0399515
614.5000	0.0398943
614.0000	0.039847
613.5000	0.039752
613.0000	0.0396883
612.5000	0.0396032
612.0000	0.0395311
611.5000	0.0395239
611.0000	0.0394046
610.5000	0.0393867
610.0000	0.0392449
609.5000	0.0392122
609.0000	0.0391305
608.5000	0.0390971
608.0000	0.0390566
607.5000	0.0390079
607.0000	0.0388991
606.5000	0.0387923
606.0000	0.0386608
605.5000	0.038621
605.0000	0.0385509
604.5000	0.0385083
604.0000	0.0384288
603.5000	0.038376
603.0000	0.0382666
602.5000	0.0382219
602.0000	0.038145
601.5000	0.0381289
601.0000	0.0380346
600.5000	0.0379775
600.0000	0.0378331
599.5000	0.0377892
599.0000	0.0377048
598.5000	0.0376738
598.0000	0.0375757
597.5000	0.0375007
597.0000	0.0374691
596.5000	0.03742
596.0000	0.0373412
595.5000	0.0372896
595.0000	0.0372512
594.5000	0.037208
594.0000	0.0370988
593.5000	0.0370614
593.0000	0.0369346
592.5000	0.0369143
592.0000	0.0368179
591.5000	0.0367555
591.0000	0.0367145
590.5000	0.0366936
590.0000	0.036626
589.5000	0.0365994
589.0000	0.0364594
588.5000	0.0364779
588.0000	0.0363709
587.5000	0.036384
587.0000	0.0362857
586.5000	0.0362458
586.0000	0.0361412
585.5000	0.0361594
585.0000	0.0361365
584.5000	0.0361066
584.0000	0.0359825
583.5000	0.0359366
583.0000	0.0358599
582.5000	0.035832
582.0000	0.0358089
581.5000	0.0357448
581.0000	0.0356942
580.5000	0.0356203
580.0000	0.0355973
579.5000	0.0355724
579.0000	0.0355194
578.5000	0.0355191
578.0000	0.0354228
577.5000	0.0353823
577.0000	0.0353129
576.5000	0.0353134
576.0000	0.0352752
575.5000	0.0352902
575.0000	0.0352476
574.5000	0.0352155
574.0000	0.0351514
573.5000	0.0351047
573.0000	0.0350404
572.5000	0.0349928
572.0000	0.0349914
571.5000	0.0349694
571.0000	0.0349362
570.5000	0.0348945
570.0000	0.0348408
569.5000	0.0347824
569.0000	0.034741
568.5000	0.0346984
568.0000	0.0347059
567.5000	0.0346871
567.0000	0.0346222
566.5000	0.0345823
566.0000	0.0345356
565.5000	0.0345395
565.0000	0.0345141
564.5000	0.0345222
564.0000	0.0345597
563.5000	0.0345278
563.0000	0.0344996
562.5000	0.0344258
562.0000	0.0343865
561.5000	0.0343373
561.0000	0.0343188
560.5000	0.0343194
560.0000	0.0343211
559.5000	0.0342869
559.0000	0.0342281
558.5000	0.034227
558.0000	0.0341904
557.5000	0.034154
557.0000	0.0341057
556.5000	0.0340609
556.0000	0.0340557
555.5000	0.0340204
555.0000	0.033963
554.5000	0.0339062
554.0000	0.0338765
553.5000	0.0338717
553.0000	0.0338711
552.5000	0.0338313
552.0000	0.0337846
551.5000	0.0337653
551.0000	0.0337103
550.5000	0.0336942
550.0000	0.0336624
549.5000	0.0336532
549.0000	0.0335857
548.5000	0.033583
548.0000	0.0335362
547.5000	0.0335196
547.0000	0.0334834
546.5000	0.0334224
546.0000	0.0334489
545.5000	0.0334706
545.0000	0.0334337
544.5000	0.0334142
544.0000	0.0333363
543.5000	0.0333355
543.0000	0.0332674
542.5000	0.0332457
542.0000	0.0332247
541.5000	0.0332356
541.0000	0.0331672
540.5000	0.0331647
540.0000	0.0331089
539.5000	0.033091
539.0000	0.0329785
538.5000	0.0330339
538.0000	0.0330093
537.5000	0.0330049
537.0000	0.0329651
536.5000	0.0329242
536.0000	0.032903
535.5000	0.0329268
535.0000	0.0328743
534.5000	0.0328171
534.0000	0.0327301
533.5000	0.0327064
533.0000	0.0327215
532.5000	0.0327438
532.0000	0.0327377
531.5000	0.0327274
531.0000	0.0326818
530.5000	0.0326616
530.0000	0.032629
529.5000	0.0325926
529.0000	0.0326057
528.5000	0.0325563
528.0000	0.0325369
527.5000	0.0325177
527.0000	0.0324628
526.5000	0.0324362
526.0000	0.0324081
525.5000	0.0324021
525.0000	0.032417
524.5000	0.0323832
524.0000	0.0323625
523.5000	0.0323641
523.0000	0.0323641
522.5000	0.0323262
522.0000	0.0323424
521.5000	0.0323253
521.0000	0.0322736
520.5000	0.0322449
520.0000	0.0321944
519.5000	0.0322009
519.0000	0.0321662
518.5000	0.0321681
518.0000	0.0322229
517.5000	0.0322521
517.0000	0.0322282
516.5000	0.0322139
516.0000	0.0321542
515.5000	0.0321621
515.0000	0.0322054
514.5000	0.0322248
514.0000	0.0321817
513.5000	0.0321454
513.0000	0.0321489
512.5000	0.032178
512.0000	0.0322135
511.5000	0.0322294
511.0000	0.0322254
510.5000	0.0322096
510.0000	0.0322233
509.5000	0.0322408
509.0000	0.0321957
508.5000	0.0322267
508.0000	0.0321805
507.5000	0.0322091
507.0000	0.0321941
506.5000	0.0322501
506.0000	0.0322645
505.5000	0.0323134
505.0000	0.0323354
504.5000	0.0323205
504.0000	0.0323353
503.5000	0.0323489
503.0000	0.0323642
502.5000	0.0324197
502.0000	0.0323587
501.5000	0.0323752
501.0000	0.0323598
500.5000	0.0323875
500.0000	0.0324377
499.5000	0.0324954
499.0000	0.0324773
498.5000	0.0324722
498.0000	0.0324602
497.5000	0.0324979
497.0000	0.0325896
496.5000	0.0326407
496.0000	0.0326229
495.5000	0.0326345
495.0000	0.0326789
494.5000	0.0327579
494.0000	0.0328284
493.5000	0.0327759
493.0000	0.03281
492.5000	0.0328108
492.0000	0.0328995
491.5000	0.0329589
491.0000	0.0329927
490.5000	0.0330095
490.0000	0.0329915
489.5000	0.0329989
489.0000	0.0330394
488.5000	0.0331043
488.0000	0.0331467
487.5000	0.0331855
487.0000	0.033192
486.5000	0.0332315
486.0000	0.033307
485.5000	0.0333677
485.0000	0.0333449
484.5000	0.0333604
484.0000	0.0333828
483.5000	0.0334193
483.0000	0.0334902
482.5000	0.0335749
482.0000	0.0336533
481.5000	0.0337103
481.0000	0.0337247
480.5000	0.0337605
480.0000	0.0338427
479.5000	0.0339057
479.0000	0.033944
478.5000	0.0339984
478.0000	0.0340415
477.5000	0.0340697
477.0000	0.0341303
476.5000	0.034179
476.0000	0.0342919
475.5000	0.0343538
475.0000	0.0343573
474.5000	0.0343856
474.0000	0.0343844
473.5000	0.0344315
473.0000	0.0345668
472.5000	0.0346182
472.0000	0.0347258
471.5000	0.0347474
471.0000	0.0348555
470.5000	0.0348744
470.0000	0.0349294
469.5000	0.0349685
469.0000	0.0350562
468.5000	0.0351152
468.0000	0.0351474
467.5000	0.0352025
467.0000	0.0352372
466.5000	0.0352484
466.0000	0.0353144
465.5000	0.0353966
465.0000	0.0354721
464.5000	0.0355137
464.0000	0.0355991
463.5000	0.0356592
463.0000	0.0357266
462.5000	0.0357928
462.0000	0.035816
461.5000	0.0358151
461.0000	0.0357972
460.5000	0.0359138
460.0000	0.0360534
459.5000	0.0361415
459.0000	0.0361629
458.5000	0.0362016
458.0000	0.0362836
457.5000	0.0363979
457.0000	0.0364061
456.5000	0.0364983
456.0000	0.0366038
455.5000	0.0367052
455.0000	0.0366983
454.5000	0.0366955
454.0000	0.0366985
453.5000	0.0367975
453.0000	0.0368853
452.5000	0.0369837
452.0000	0.0370398
451.5000	0.0370802
451.0000	0.0371465
450.5000	0.0371779
450.0000	0.037297
449.5000	0.0373495
449.0000	0.0373788
448.5000	0.0373984
448.0000	0.0373982
447.5000	0.0375141
447.0000	0.0376089
446.5000	0.037708
446.0000	0.0377774
445.5000	0.0378274
445.0000	0.0379217
444.5000	0.0380324
444.0000	0.0381596
443.5000	0.0382864
443.0000	0.0384197
442.5000	0.0385204
442.0000	0.038671
441.5000	0.0388
441.0000	0.0389681
440.5000	0.0390692
440.0000	0.0393104
439.5000	0.0394459
439.0000	0.0397217
438.5000	0.0398268
438.0000	0.0401323
437.5000	0.0403445
437.0000	0.0406391
436.5000	0.0407888
436.0000	0.0410856
435.5000	0.0412488
435.0000	0.0415312
434.5000	0.0417134
434.0000	0.0420308
433.5000	0.042232
433.0000	0.0425589
432.5000	0.0428017
432.0000	0.0431467
431.5000	0.0434112
431.0000	0.043723
430.5000	0.0439596
430.0000	0.0441868
429.5000	0.0443793
429.0000	0.0446914
428.5000	0.0449459
428.0000	0.0453514
427.5000	0.0455645
427.0000	0.0459422
426.5000	0.0462313
426.0000	0.0465938
425.5000	0.04689
425.0000	0.0472235
424.5000	0.0475171
424.0000	0.0479478
423.5000	0.0483077
423.0000	0.0488159
422.5000	0.049183
422.0000	0.0496591
421.5000	0.0499652
421.0000	0.0505132
420.5000	0.0508835
420.0000	0.0513927
419.5000	0.0516988
419.0000	0.0521276
418.5000	0.0524528
418.0000	0.0528953
417.5000	0.0532495
417.0000	0.0536559
416.5000	0.05399
416.0000	0.0544167
415.5000	0.0547286
415.0000	0.0551001
414.5000	0.0553526
414.0000	0.0557754
413.5000	0.0560747
413.0000	0.056328
412.5000	0.0564859
412.0000	0.0566858
411.5000	0.0568963
411.0000	0.0571816
410.5000	0.0573518
410.0000	0.0576384
409.5000	0.0577457
409.0000	0.0580103
408.5000	0.0580874
408.0000	0.0582057
407.5000	0.058382
407.0000	0.0585901
406.5000	0.0587037
406.0000	0.0587411
405.5000	0.0588062
405.0000	0.0589491
404.5000	0.0590742
404.0000	0.0590919
403.5000	0.0591455
403.0000	0.059153
402.5000	0.05925
402.0000	0.0592685
401.5000	0.0593427
401.0000	0.0593012
400.5000	0.0593548
400.0000	0.0592981
399.5000	0.0592817
399.0000	0.0591316
398.5000	0.0591655
398.0000	0.0591613
397.5000	0.0591639
397.0000	0.0591939
396.5000	0.0592512
396.0000	0.0593135
395.5000	0.0592828
395.0000	0.0592306
394.5000	0.0592287
394.0000	0.059251
393.5000	0.0592203
393.0000	0.059235
392.5000	0.0592637
392.0000	0.0592131
391.5000	0.0591912
391.0000	0.0590221
390.5000	0.0589769
390.0000	0.0589366
389.5000	0.0589125
389.0000	0.0589661
388.5000	0.0589131
388.0000	0.058915
387.5000	0.0587777
387.0000	0.0587955
386.5000	0.0588272
386.0000	0.0589371
385.5000	0.0589672
385.0000	0.058998
384.5000	0.0589085
384.0000	0.0588714
383.5000	0.0589002
383.0000	0.058976
382.5000	0.0590133
382.0000	0.0590489
381.5000	0.0589975
381.0000	0.0588755
380.5000	0.0587659
380.0000	0.0586928
379.5000	0.0586283
379.0000	0.0586025
378.5000	0.0585163
378.0000	0.0583485
377.5000	0.0583018
377.0000	0.0580547
376.5000	0.0579317
376.0000	0.0576613
375.5000	0.0575798
375.0000	0.0575221
374.5000	0.0574705
374.0000	0.0573876
373.5000	0.0572861
373.0000	0.0571372
372.5000	0.0569768
372.0000	0.0569116
371.5000	0.0568617
371.0000	0.0569113
370.5000	0.0568895
370.0000	0.0569189
369.5000	0.0567817
369.0000	0.0568634
368.5000	0.0568173
368.0000	0.0568293
367.5000	0.0568637
367.0000	0.0568501
366.5000	0.0568558
366.0000	0.0568656
365.5000	0.0569946
365.0000	0.0570732
364.5000	0.057183
364.0000	0.0573281
363.5000	0.057504
363.0000	0.0574788
362.5000	0.0575488
362.0000	0.0577977
361.5000	0.0578792
361.0000	0.0583311
360.5000	0.0585357
360.0000	0.058844
359.5000	0.0589631
359.0000	0.0592204
358.5000	0.0594994
358.0000	0.0597991
357.5000	0.0600494
357.0000	0.0603695
356.5000	0.0606246
356.0000	0.061079
355.5000	0.0613752
355.0000	0.0617551
354.5000	0.0621146
354.0000	0.0627015
353.5000	0.0630749
353.0000	0.0636222
352.5000	0.064076
352.0000	0.0647282
351.5000	0.0652033
351.0000	0.0658566
350.5000	0.0663453
350.0000	0.0671755
349.5000	0.0677166
349.0000	0.0685017
348.5000	0.0690616
348.0000	0.0700417
347.5000	0.0706716
347.0000	0.0715679
346.5000	0.072176
346.0000	0.073099
345.5000	0.0737991
345.0000	0.0750738
344.5000	0.0759527
344.0000	0.0773153
343.5000	0.0782174
343.0000	0.0795766
342.5000	0.0804087
342.0000	0.0817297
341.5000	0.0826256
341.0000	0.08413
340.5000	0.0851661
340.0000	0.0832132
339.5000	0.0844905
339.0000	0.0862477
338.5000	0.0875233
338.0000	0.0893778
337.5000	0.0906424
337.0000	0.0925462
336.5000	0.0940361
336.0000	0.0962378
335.5000	0.0977428
335.0000	0.100082
334.5000	0.10154
334.0000	0.104098
333.5000	0.105799
333.0000	0.108419
332.5000	0.110171
332.0000	0.113058
331.5000	0.115061
331.0000	0.118238
330.5000	0.120402
330.0000	0.123866
329.5000	0.12625
329.0000	0.129785
328.5000	0.132256
328.0000	0.136032
327.5000	0.138713
327.0000	0.142926
326.5000	0.145729
326.0000	0.150191
325.5000	0.153099
325.0000	0.157915
324.5000	0.161173
324.0000	0.166223
323.5000	0.169674
323.0000	0.175176
322.5000	0.178949
322.0000	0.184835
321.5000	0.188896
321.0000	0.195062
320.5000	0.199124
320.0000	0.205837
319.5000	0.21051
319.0000	0.21782
318.5000	0.222726
318.0000	0.230373
317.5000	0.235645
317.0000	0.243974
316.5000	0.249706
316.0000	0.258742
315.5000	0.264921
315.0000	0.274613
314.5000	0.281207
314.0000	0.291458
313.5000	0.298445
313.0000	0.309474
312.5000	0.316992
312.0000	0.329005
311.5000	0.337146
311.0000	0.349767
310.5000	0.358313
310.0000	0.371782
309.5000	0.381161
309.0000	0.395823
308.5000	0.405842
308.0000	0.421583
307.5000	0.432096
307.0000	0.448795
306.5000	0.460168
306.0000	0.478173
305.5000	0.490723
305.0000	0.509857
304.5000	0.523085
304.0000	0.543294
303.5000	0.557033
303.0000	0.578541
302.5000	0.593433
302.0000	0.616756
301.5000	0.632284
301.0000	0.656536
300.5000	0.672738
300.0000	0.698673
299.5000	0.716067
299.0000	0.743485
298.5000	0.761706
298.0000	0.790105
297.5000	0.809446
297.0000	0.839385
296.5000	0.859643
296.0000	0.889899
295.5000	0.909953
295.0000	0.941001
294.5000	0.961593
294.0000	0.993605
293.5000	1.01359
293.0000	1.04336
292.5000	1.06234
292.0000	1.0922
291.5000	1.11104
291.0000	1.13599
290.5000	1.14773
290.0000	1.16648
289.5000	1.17609
289.0000	1.1873
288.5000	1.18733
288.0000	1.18281
287.5000	1.17395
287.0000	1.15158
286.5000	1.13018
286.0000	1.08891
285.5000	1.05655
285.0000	1.00776
284.5000	0.971854
284.0000	0.905355
283.5000	0.854608
283.0000	0.783656
282.5000	0.728778
282.0000	0.657598
281.5000	0.609743
281.0000	0.54576
280.5000	0.50567
280.0000	0.445924
279.5000	0.405842
279.0000	0.351823
278.5000	0.321352
278.0000	0.288807
277.5000	0.266709
277.0000	0.240393
276.5000	0.219017
276.0000	0.201157
275.5000	0.189357
275.0000	0.172518
274.5000	0.1594
274.0000	0.152319
273.5000	0.147626
273.0000	0.146711
272.5000	0.14254
272.0000	0.133548
271.5000	0.137811
271.0000	0.134581
270.5000	0.139013
270.0000	0.143728
269.5000	0.143373
269.0000	0.14158
268.5000	0.141154
268.0000	0.135186
267.5000	0.136659
267.0000	0.133828
266.5000	0.130705
266.0000	0.135026
265.5000	0.135346
265.0000	0.137031
264.5000	0.130865
264.0000	0.135241
263.5000	0.139759
263.0000	0.142676
262.5000	0.143465
262.0000	0.139708
261.5000	0.140181
261.0000	0.13929
260.5000	0.13977
260.0000	0.148671
259.5000	0.147853
259.0000	0.151429
258.5000	0.150077
258.0000	0.151288
257.5000	0.151104
257.0000	0.147485
256.5000	0.152632
256.0000	0.160452
255.5000	0.167354
255.0000	0.164515
254.5000	0.166488
254.0000	0.16755
253.5000	0.173126
253.0000	0.18566
252.5000	0.193636
252.0000	0.192651
251.5000	0.195107
251.0000	0.194822
250.5000	0.202354
250.0000	0.210479
249.5000	0.219512
249.0000	0.231418
248.5000	0.23858
248.0000	0.244504
247.5000	0.244752
247.0000	0.250742
246.5000	0.248078
246.0000	0.249542
245.5000	0.247493
245.0000	0.258385
244.5000	0.264498
244.0000	0.282029
243.5000	0.286351
243.0000	0.29071
242.5000	0.288454
242.0000	0.293553
241.5000	0.296965
241.0000	0.308871
240.5000	0.311011
240.0000	0.311383
239.5000	0.318696
239.0000	0.321371
238.5000	0.330248
238.0000	0.342951
237.5000	0.348844
237.0000	0.351301
236.5000	0.354024
236.0000	0.350439
235.5000	0.357095
235.0000	0.355809
234.5000	0.365789
234.0000	0.364654
233.5000	0.371666
233.0000	0.382132
232.5000	0.393003
232.0000	0.395651
231.5000	0.406237
231.0000	0.406931
230.5000	0.417712
230.0000	0.426599
229.5000	0.431171
229.0000	0.446161
228.5000	0.454964
228.0000	0.469067
227.5000	0.475131
227.0000	0.482139
226.5000	0.4835
226.0000	0.486721
225.5000	0.485009
225.0000	0.491803
224.5000	0.49892
224.0000	0.51039
223.5000	0.517377
223.0000	0.519732
222.5000	0.519038
222.0000	0.510845
221.5000	0.511796
221.0000	0.50878
220.5000	0.507968
220.0000	0.507386
219.5000	0.501476
219.0000	0.493967
218.5000	0.493352
218.0000	0.49135
217.5000	0.489494
217.0000	0.475482
216.5000	0.468604
216.0000	0.463087
215.5000	0.455549
215.0000	0.454016
214.5000	0.448233
214.0000	0.440901
213.5000	0.42933
213.0000	0.424689
212.5000	0.421532
212.0000	0.412691
211.5000	0.406487
211.0000	0.394375
210.5000	0.384212
210.0000	0.37403
209.5000	0.367942
209.0000	0.357568
208.5000	0.354268
208.0000	0.353377
207.5000	0.348184
207.0000	0.334667
206.5000	0.326138
206.0000	0.313883
205.5000	0.309508
205.0000	0.30225
204.5000	0.295134
204.0000	0.284727
203.5000	0.276509
203.0000	0.269686
202.5000	0.258162
202.0000	0.252003
201.5000	0.242548
201.0000	0.233783
200.5000	0.223036
200.0000	0.210055

##### Extended Information
[Comments]
Sample name	n2200-mesi
Comment	4-1mgml-bar-coater
User
Division
Company	ICMAB

[Detailed Information]
Creation date	21/12/23 11:10 AM

Data array type	Linear data array
Horizontal axis	Wavelength [nm]
Vertical axis	Abs
Start	1600 nm
End	200 nm
Data interval	0.5 nm
Data points	2801    

[Measurement Information]
Instrument name	V-780
Model name	V-780
Serial No.	D003961802

Accessory	FLH-741
Accessory S/N	B057261128
  Mask	
  Ref. beam	

Measurement date	21/12/23 11:10 AM

Photometric mode	Abs
Measurement range	1600 - 200 nm
Data interval	0.5 nm
UV/Vis bandwidth	2.0 nm
NIR bandwidth	4.0 nm
UV/Vis response	0.24 sec
NIR response	0.24 sec
Scan mode	Continuous
Scan speed	400 nm/min
Change source at	340 nm
Change grating at	850 nm
Light source	D2/WI
Filter exchange	Step
Correction	Baseline
No. of cycles	1

